SUBJECT,TIME,FP1,FP2,F3,F4,C3,C4,P3,P4,O1,O2,F7,F8,T3,T4,T5,T6,FZ,PZ,T5',T6',O1',O2',"P3""","P4""","PZ""",OZ,I,"CB1""","CB2""",CB1,CB2
CBA,0,-19.9952,-46.3864,-28.3298,81.1222,-67.0026,21.798,32.5385,38.0222,-14.6825,-56.8499,-20.6809,95.4126,22.3575,36.4049,-37.6289,-3.4353,-25.2713,36.0585,26.6667,-29.089,-7.4671,-47.769,-29.1788,-43.959,29.6388,-10.4481,5.7103,-25.6124,37.2684,-22.6576,-2.0059
CBA,1,-19.5624,-42.738,-28.3298,80.7722,-66.5652,21.7112,34.0136,39.3243,-12.7824,-53.8808,-20.2536,95.5854,23.5614,35.0311,-35.9624,-2.2021,-25.8898,37.1854,29.1775,-28.3943,-5.991,-45.1729,-27.5288,-41.7477,31.464,-7.9019,7.6138,-23.6087,40.8917,-21.089,1.0465
CBA,2,-19.1296,-39.6108,-28.1576,80.3346,-66.2153,21.6243,35.4019,40.4528,-11.0551,-50.999,-20.0827,95.3262,24.5933,35.2887,-34.559,-1.2332,-26.3316,38.2255,30.8225,-28.2206,-4.6018,-42.4902,-26.0525,-39.5365,33.1155,-5.6192,9.4307,-21.6922,44.2562,-19.2589,4.3606
CBA,3,-18.9564,-38.5685,-27.7271,79.5471,-65.9529,21.6243,36.3564,41.4077,-9.6732,-48.3792,-20.0827,94.7212,25.5392,36.7483,-33.1556,-0.6166,-26.42,39.179,31.5152,-28.3943,-3.2994,-39.8075,-24.6631,-37.5907,34.5061,-3.8632,11.1611,-19.9498,46.8443,-17.3417,7.5874
CBA,4,-19.1296,-39.8714,-27.3826,78.7595,-65.603,21.6243,37.2241,42.2758,-8.464,-46.196,-20.0827,94.0298,26.3991,39.1524,-31.8399,-0.0881,-26.5967,39.9591,31.1688,-28.3943,-1.997,-37.471,-23.4473,-35.8217,35.6361,-2.634,12.5454,-18.5559,48.6559,-15.2503,10.2037
CBA,5,-19.1296,-42.5643,-27.2104,78.4969,-65.3406,21.4507,38.2653,42.9702,-7.514,-44.5368,-20.0827,93.5977,27.173,41.8999,-30.6996,0.3523,-27.0385,40.4792,30.0433,-27.8733,-0.7814,-35.7402,-22.4052,-34.4065,36.3314,-1.6682,13.5837,-17.2492,49.3461,-12.9845,12.1224
CBA,6,-18.9564,-45.1703,-27.2965,78.4094,-64.9907,21.1901,38.8727,43.4911,-6.9094,-43.1396,-19.9118,93.4248,27.7749,44.5616,-29.7348,0.8808,-27.3036,40.6525,28.1385,-27.0918,0.1737,-34.3556,-21.6236,-33.3451,36.8529,-1.0536,14.4489,-16.2038,49.5186,-10.9802,13.605
CBA,7,-18.8699,-46.4732,-27.3826,78.3219,-64.9033,20.7559,39.0462,44.0119,-6.6503,-41.917,-19.9118,93.6841,28.1189,47.0516,-29.2962,1.6736,-27.3036,40.6525,25.8009,-26.484,0.8683,-33.0576,-21.2762,-32.4606,37.2875,-0.6146,15.2275,-15.3326,49.3461,-9.8473,14.7387
CBA,8,-19.043,-45.8652,-27.5549,78.4094,-64.8158,20.2348,39.133,44.6196,-6.4776,-40.7817,-20.1682,94.2027,28.2049,49.1122,-29.4716,2.8187,-27.3919,40.7392,23.3766,-26.1366,0.9551,-31.673,-21.1025,-31.5762,37.7221,0.1756,15.5736,-15.1584,48.3971,-9.8473,15.0876
CBA,9,-19.043,-43.5198,-27.5549,78.7595,-64.6408,19.6269,39.133,45.1405,-6.6503,-39.5592,-20.51,94.7212,28.2049,50.5718,-30.0856,3.8757,-27.7454,40.8259,21.4719,-26.2235,0.4341,-30.721,-21.2762,-30.8686,37.9828,1.1414,15.0545,-16.0296,46.3266,-11.4159,13.9538
CBA,10,-18.8699,-39.9583,-27.2104,79.1095,-64.291,18.8453,38.8727,45.3141,-7.3413,-38.5986,-20.6809,94.9805,28.2049,51.0011,-30.9627,4.3161,-27.8337,40.7392,20.2597,-27.1786,-0.6946,-30.2883,-21.7973,-30.6032,37.9828,1.8438,13.5837,-18.0332,43.3072,-14.466,11.5119
CBA,11,-18.6102,-36.3099,-26.6938,78.7595,-63.8536,18.0637,38.2653,45.3141,-8.3777,-37.8126,-20.7664,94.894,28.1189,50.6577,-31.9276,4.228,-27.657,40.4792,19.8268,-28.568,-1.997,-30.2883,-22.6657,-30.6917,37.7221,2.2828,11.6802,-20.4725,40.7191,-17.7775,8.9828
CBA,12,-18.6102,-33.5302,-26.6077,77.9719,-63.4163,17.2821,37.7447,45.1405,-9.3277,-37.7253,-20.5955,94.5483,28.2049,49.8849,-32.5416,4.1399,-27.9221,40.0458,20.0866,-29.6968,-3.2126,-30.2883,-23.5341,-30.8686,37.2875,2.1072,10.0363,-22.302,40.029,-20.3047,7.7618
CBA,13,-18.8699,-32.0535,-26.9521,77.1843,-63.2413,16.5873,37.2241,44.7064,-10.0187,-38.9479,-20.2536,94.2891,28.3768,49.1122,-32.8924,4.1399,-28.7174,39.5257,21.039,-30.1309,-3.9072,-30.6345,-24.3157,-31.3108,36.5921,1.2292,9.6037,-23.086,41.8406,-21.2632,8.6339
CBA,14,-19.3892,-31.6192,-27.5549,76.2216,-63.2413,15.9794,36.7902,44.3592,-10.2778,-40.6944,-19.9118,94.2891,28.5488,48.4253,-32.8924,4.4923,-29.4242,39.0923,22.5108,-29.9573,-3.8204,-30.8076,-24.7499,-31.8415,35.723,0.0878,10.7285,-22.6504,45.3777,-20.6532,11.0758
CBA,15,-19.9952,-31.9666,-28.2437,74.909,-63.3288,15.6321,36.5299,44.2724,-10.105,-41.655,-19.57,94.6348,28.7208,48.0819,-32.4539,5.285,-29.866,38.8323,24.329,-29.2626,-3.1258,-30.1153,-24.6631,-31.8415,35.2015,-0.439,12.5454,-21.3437,49.0873,-19.0846,14.3027
CBA,16,-20.6876,-32.7484,-29.277,73.6838,-63.5037,15.3715,36.4431,44.5328,-9.5005,-41.393,-19.4845,95.1533,28.8928,47.996,-32.103,6.342,-30.4846,38.7456,25.8009,-27.9601,-2.0838,-28.5576,-24.142,-31.1339,35.2884,-0.0878,13.7567,-20.0369,51.244,-17.3417,17.1806
CBA,17,-21.1204,-33.5302,-30.2242,73.1588,-63.7661,15.4584,36.4431,44.9668,-8.9822,-39.9958,-19.4845,95.8447,29.1508,48.3395,-32.1907,7.4871,-31.2798,38.8323,26.6667,-26.3971,-1.3892,-26.4807,-23.7078,-30.0725,35.6361,0.9658,13.4971,-19.4271,50.295,-16.2089,18.9249
CBA,18,-21.2935,-34.2252,-30.7409,72.9838,-63.8536,15.8057,36.3564,45.4009,-8.7231,-37.8126,-19.57,96.4497,29.3227,48.9405,-32.6293,8.4561,-31.81,38.9189,26.8398,-25.0078,-1.1287,-24.1441,-23.5341,-28.9227,36.1576,2.1072,11.7667,-19.7756,46.3266,-15.9474,19.6225
CBA,19,-21.3801,-34.8332,-30.9131,72.8962,-63.7661,16.24,36.0961,45.5745,-8.8959,-35.4548,-19.9118,96.9682,29.2367,49.6274,-33.1556,8.8965,-31.9867,38.8323,26.4935,-24.2263,-1.3892,-22.1538,-23.7078,-28.1267,36.6791,2.9852,9.2577,-20.6468,40.8917,-16.5574,19.0993
CBA,0,65.5252,-37.4392,43.8294,1.8377,47.6715,8.7713,11.0197,-5.2953,11.4869,11.6145,32.4742,-42.6073,22.9594,39.8393,13.5955,68.0889,27.0385,30.7711,-27.2727,-2.3445,42.9792,6.4038,53.9287,68.017,61.7112,74.1027,41.5297,44.604,76.1758,18.9103,29.9135
CBA,1,67.4295,-39.4371,44.5183,2.9754,47.4966,9.0319,10.2388,-6.5106,5.0957,7.0735,33.1579,-44.2493,22.7015,39.7534,17.7181,66.5034,28.0105,29.3842,-26.3203,7.0334,37.5959,1.0385,51.1498,65.5404,59.4514,69.5371,35.9059,35.1953,65.9098,14.1174,23.6343
CBA,2,69.6801,-40.827,45.2933,4.5505,47.1467,8.8582,9.4579,-9.0281,-1.2091,0.8733,34.0979,-45.5457,21.2396,39.5817,21.2266,61.923,28.8057,27.824,-27.1861,11.5487,32.9941,-7.3557,48.4577,61.5602,56.5831,64.2692,30.6281,25.7867,56.5927,8.6273,16.4829
CBA,3,71.6709,-41.0007,46.0683,6.3008,46.7968,8.5976,8.3299,-11.8928,-6.4776,-6.8988,35.0379,-45.7185,19.0039,40.2686,22.8054,57.5188,29.7777,26.0904,-31.6883,11.6356,29.4342,-19.5576,45.7656,56.4302,53.4541,58.7378,25.783,17.859,49.2598,3.6601,9.1572
CBA,4,72.45,-40.5664,46.2405,7.7884,46.0096,8.8582,6.6812,-14.063,-9.7596,-15.1949,34.7816,-44.6814,16.3382,43.6171,21.7529,56.638,30.6613,24.5302,-40.0866,12.8512,26.6558,-32.2787,43.334,51.4771,50.6727,53.6454,21.7166,12.632,44.0836,0.61,1.3954
CBA,5,71.9306,-39.6977,45.6377,9.2761,45.1349,9.7266,5.2062,-15.0179,-9.9323,-20.6965,33.2433,-42.953,13.5865,49.1981,17.9812,58.3116,30.7497,23.7501,-50.3896,17.2797,25.2666,-41.5383,41.8577,48.2045,49.1951,51.0993,20.0727,12.1093,42.7896,0.5229,-4.7094
CBA,6,70.6322,-38.3947,44.7766,10.5888,44.2602,10.5082,4.512,-15.3651,-7.1685,-21.8318,31.2778,-41.4837,11.4367,53.4052,12.1921,57.7831,30.2195,23.6634,-59.4805,21.1872,25.527,-43.2691,41.684,47.2316,49.2821,51.626,21.0244,16.1167,45.1189,2.9629,-7.413
CBA,7,69.3338,-36.4837,44.0878,11.1138,43.5604,10.5082,4.2517,-15.5387,-2.591,-18.8627,29.4831,-40.6195,10.1469,53.1476,5.9645,52.41,29.7777,24.0101,-63.9827,19.5374,27.0899,-36.6056,42.5525,48.3814,50.412,54.3478,23.5335,22.8247,49.3461,6.7973,-6.1048
CBA,8,68.3817,-34.6595,44.0017,10.5888,43.1231,9.6398,4.3385,-16.1464,2.6774,-13.0117,28.4576,-40.4466,9.9749,47.996,1.6665,44.6586,29.6893,24.6169,-61.8182,10.1594,29.7815,-23.9711,44.3761,50.4157,52.2372,58.2988,26.9943,30.6652,54.436,11.1545,-1.1337
CBA,9,68.0355,-33.5302,44.3461,9.6262,43.2105,8.1634,5.1194,-17.6221,6.6503,-6.8988,28.714,-40.4466,11.5227,39.8393,0.7894,37.5238,29.5126,25.2236,-54.1126,-4.0811,32.039,-11.0769,46.2866,52.0078,53.8018,61.9864,30.2821,37.8959,58.922,14.6403,4.971
CBA,10,67.9489,-33.4434,44.6044,8.576,43.4729,6.4265,6.2474,-19.5319,6.7367,-3.0564,29.9104,-40.6195,14.1884,32.8846,5.1751,33.2957,28.8941,25.3103,-44.2424,-17.1929,31.8654,-1.7308,47.2419,52.0078,54.2363,63.8302,32.099,42.7745,60.9924,15.9474,8.3723
CBA,11,68.0355,-34.2252,45.035,7.3509,44.0852,4.8633,7.6357,-21.3549,2.0728,-2.4452,31.1069,-41.0516,17.3701,29.536,16.3146,32.1507,28.3639,24.9636,-35.2381,-25.5288,29.9552,3.7211,47.5024,50.9464,53.541,63.04,32.1855,43.4714,60.0435,12.9845,7.5874
CBA,12,68.122,-35.4413,45.6377,5.6882,45.0474,3.8212,9.6314,-22.5702,-4.7502,-3.8424,31.9614,-41.4837,20.3797,30.0512,32.8047,31.446,28.2755,24.5302,-28.658,-28.568,29.6079,6.4038,48.4577,49.4428,52.498,60.406,30.3686,39.2898,57.8867,6.1873,4.7094
CBA,13,68.0355,-36.918,45.8099,4.113,45.6597,3.2133,11.9742,-23.0043,-9.155,-5.327,31.9614,-41.9159,22.4435,33.9149,46.1371,30.3009,28.0988,24.3568,-26.0606,-25.8761,32.3863,7.1827,50.3682,48.6467,51.8896,58.2988,27.5134,33.8014,56.3339,0.1743,1.5698
CBA,14,67.6027,-38.829,45.6377,2.9754,45.4848,2.9527,13.4493,-22.1362,-8.2049,-5.5016,31.2778,-42.0023,23.3894,39.5817,48.8562,30.0366,27.8337,24.4435,-27.7922,-19.7979,37.2486,6.75,52.4524,49.1774,52.1503,58.2988,25.0043,31.1008,55.73,-1.0457,-1.4826
CBA,15,66.9102,-40.9138,45.2072,2.3628,44.5226,2.9527,13.1022,-20.4,-2.6774,-3.9297,29.9104,-41.743,23.3034,44.304,40.1726,30.6532,27.7454,24.6169,-32.6407,-15.1089,41.6768,5.5384,53.5814,50.9464,53.2803,60.4938,23.3604,32.3204,55.6437,2.9629,-3.4885
CBA,16,65.7849,-42.3905,44.6905,2.1003,42.9481,2.8659,11.1065,-18.4034,4.5775,-1.4846,28.2013,-41.138,21.8416,46.1929,24.9982,31.8864,28.0105,24.9636,-38.0952,-15.0221,43.6738,4.2404,53.3208,53.5114,54.584,63.6546,23.1009,35.8051,55.5575,9.8473,-3.6629
CBA,17,64.9193,-42.6511,44.0878,2.3628,41.2862,2.779,8.4166,-17.1013,10.8823,0.4366,26.9194,-40.4466,19.1759,44.8192,9.473,33.0315,28.1872,25.3103,-42.0779,-18.4954,42.8924,2.9423,52.0182,55.4573,55.5401,66.8153,24.6582,40.4223,55.4712,16.906,-1.8314
CBA,18,64.3134,-41.2613,43.7433,3.2379,40.0616,2.6053,6.4209,-16.5804,15.2871,1.3972,26.7485,-39.496,15.6503,41.4706,-1.4034,33.9123,28.0988,25.8304,-43.4632,-23.0975,40.7217,2.5096,50.5419,56.5187,56.0616,69.5371,27.1673,44.7782,55.2124,22.2218,0.5233
CBA,19,64.3134,-38.7422,43.9155,4.113,39.5368,2.258,5.1194,-16.9277,17.0144,1.6592,27.1758,-38.6317,12.7266,37.6069,-5.5259,34.2647,28.2755,26.1771,-41.645,-27.7865,38.2906,3.2884,49.3261,56.6071,56.0616,71.1175,29.5034,46.6077,55.3849,23.9647,2.5291
CBA,0,337.3208,227.5017,144.0602,60.2072,-15.4823,18.6716,19.176,-47.0502,-76.1763,-49.4271,192.3669,-12.2723,-6.3633,-85.0878,-24.6474,-52.9385,112.9255,12.2218,0.6061,-35.4277,-49.6648,-64.3844,8.0763,-52.5385,-43.1979,-103.5155,-89.3753,-94.3478,-67.2901,-49.6723,-54.5071
CBA,1,338.8789,228.5441,142.5964,61.1698,-16.357,18.4111,18.7422,-46.9634,-76.5218,-50.0384,194.4179,-13.1365,-6.3633,-87.6636,-24.3843,-52.2338,112.572,12.1351,0.6061,-36.9907,-50.0122,-65.5959,7.8158,-52.2731,-43.1979,-103.5155,-85.3954,-94.5221,-64.8746,-46.2737,-54.2454
CBA,2,340.1773,226.5462,141.3908,65.1953,-16.7944,19.2795,18.829,-46.3558,-75.3127,-49.6891,195.1015,-15.5564,-6.1913,-90.2394,-22.4546,-51.1768,112.8371,12.5685,2.4242,-38.7274,-48.5361,-65.8555,8.771,-51.4771,-42.4156,-102.4619,-81.675,-90.0791,-62.5453,-40.5222,-52.5012
CBA,3,340.3504,221.1605,140.0992,70.446,-16.9693,20.4954,19.7834,-45.3141,-72.2034,-47.9426,194.076,-20.569,-6.0193,-92.7293,-18.946,-50.0317,112.7487,13.6953,4.2424,-40.6377,-45.063,-64.9901,11.0289,-49.7966,-40.7642,-99.9157,-78.1277,-81.1932,-60.3023,-32.7663,-50.2337
CBA,4,338.8789,213.6032,138.2909,74.8215,-17.2317,21.3638,21.6924,-44.3592,-67.2805,-45.2354,191.5123,-27.6558,-6.1913,-95.391,-14.7358,-49.5032,111.8651,14.9955,3.9827,-42.9822,-39.9403,-64.1248,14.3289,-47.9391,-38.7651,-96.0525,-75.186,-69.2581,-58.4906,-24.4004,-49.9721
CBA,5,336.4552,206.0459,136.3104,76.9217,-17.6691,21.798,23.7748,-43.7515,-62.1848,-42.8776,188.0939,-34.3969,-6.8792,-97.9668,-11.0519,-50.0317,110.6281,16.1223,0.8658,-45.4135,-34.3834,-63.8651,17.7157,-46.524,-36.8529,-92.5406,-74.5804,-58.4556,-57.024,-16.9932,-52.8501
CBA,6,333.8585,200.2258,134.5882,76.3092,-18.1064,21.8849,25.4234,-43.4043,-57.6936,-41.655,184.2483,-38.9774,-7.9971,-100.0275,-8.3327,-51.5291,109.6561,16.9891,-3.8961,-47.3238,-29.0869,-64.7305,20.7552,-45.9048,-35.3753,-90.17,-77.2625,-51.0506,-56.7652,-11.2416,-57.9955
CBA,7,331.3482,196.9249,132.7799,73.2463,-18.4563,21.6243,26.6382,-43.4911,-54.6708,-42.0917,180.2318,-40.1874,-9.373,-101.7447,-7.0171,-53.467,108.5074,17.6825,-8.9177,-48.3658,-25.2666,-66.9805,22.6657,-46.1702,-34.7669,-89.5554,-82.0211,-47.1304,-58.0593,-7.233,-63.6643
CBA,8,328.9246,196.9249,131.5744,68.6957,-18.8062,21.277,26.9853,-43.8383,-54.8435,-43.8382,176.4716,-37.8539,-10.6628,-102.6033,-8.0696,-55.1406,107.2703,17.9426,-12.8139,-48.9736,-24.8324,-69.4036,22.4052,-47.1431,-35.0276,-91.1358,-87.1258,-48.6985,-58.2318,-7.0587,-66.8911
CBA,9,327.1934,200.3996,131.5744,62.8325,-18.6313,21.277,26.0308,-44.2724,-59.3346,-47.0693,174.0788,-32.1499,-11.2647,-102.0881,-11.5781,-56.2857,106.8285,17.7692,-14.5455,-49.4946,-28.6528,-71.567,19.7131,-48.7352,-36.5921,-95.5257,-91.7114,-58.02,-57.1103,-12.8102,-66.2806
CBA,10,326.5009,206.0459,132.5216,57.1444,-18.1939,21.3638,23.8616,-44.7932,-66.8486,-50.8244,173.8224,-24.8902,-11.1788,-100.1992,-16.9286,-56.8142,107.3587,17.0758,-14.3723,-49.7551,-35.5121,-72.6055,15.371,-50.5926,-38.852,-101.4961,-94.9991,-73.9624,-56.5064,-23.7033,-62.0945
CBA,11,326.7606,211.9527,133.641,53.6439,-18.019,21.1033,21.432,-45.1405,-75.2263,-52.9202,175.0188,-18.1491,-10.7488,-97.881,-22.8054,-56.5499,107.9772,16.2957,-13.9394,-49.321,-43.8475,-71.1343,10.5078,-51.654,-41.0249,-106.7641,-96.1239,-93.3024,-56.3339,-36.0778,-55.728
CBA,12,328.3187,217.0778,134.5882,52.9439,-18.3688,20.4954,19.176,-45.5745,-83.7767,-52.6582,176.9843,-12.7908,-10.4048,-95.4769,-28.5945,-55.6691,108.3307,15.4289,-14.1991,-47.758,-52.5301,-67.6728,5.7316,-51.654,-42.8502,-110.4516,-94.2204,-112.3811,-55.8163,-47.8423,-49.9721
CBA,13,331.002,220.8999,135.7076,54.6066,-18.8062,19.6269,17.0936,-46.269,-90.9452,-51.8723,179.0354,-9.4203,-9.9749,-93.6738,-33.0679,-55.1406,109.0376,14.3887,-15.0649,-45.9345,-60.2577,-64.7305,1.65,-51.5655,-44.4147,-112.91,-89.5484,-125.9714,-55.1261,-56.5567,-47.443
CBA,14,333.5988,222.6372,136.9993,57.3194,-18.8937,18.9322,15.792,-46.9634,-94.1408,-51.0863,180.0609,-8.1239,-9.287,-92.6435,-34.7344,-55.4048,110.1863,13.6953,-15.4113,-44.632,-64.4254,-63.2594,-0.1737,-51.3002,-44.9362,-113.0856,-82.7133,-129.5432,-53.7458,-58.8225,-47.879
CBA,15,334.724,221.3343,137.6881,60.4698,-18.8062,18.3242,15.9656,-47.3975,-92.4998,-49.5145,179.2917,-8.9017,-8.771,-92.5576,-33.2433,-55.7572,110.6281,13.6086,-14.1126,-43.8505,-63.9044,-62.4805,0.7816,-50.5042,-44.1539,-110.3638,-75.4456,-123.1836,-51.1577,-54.5524,-49.1872
CBA,16,333.5122,216.9041,137.602,63.5326,-18.6313,18.0637,17.2671,-47.2239,-87.145,-46.8073,176.4716,-11.1488,-8.2551,-93.3304,-29.9102,-55.581,110.1863,14.1287,-11.0823,-43.4163,-59.5631,-61.7882,3.9079,-48.8236,-42.1549,-105.5349,-69.2161,-111.2486,-47.6207,-47.4937,-49.7977
CBA,17,329.9633,210.0417,137.2576,65.5454,-18.3688,18.1506,18.829,-46.5294,-81.3584,-43.8382,172.1987,-14.6057,-8.0831,-94.8759,-26.5771,-54.9644,109.3027,14.9955,-6.8398,-43.5032,-54.4403,-61.3555,7.3815,-46.9662,-39.895,-100.7937,-65.0632,-99.8362,-44.2562,-42.0908,-49.7105
CBA,18,324.8563,202.3106,136.8271,65.7204,-18.1064,18.3242,19.6967,-45.9217,-78.0764,-42.179,166.9003,-18.4084,-8.0831,-96.9365,-24.3843,-53.8193,108.2423,15.6889,-2.1645,-43.8505,-50.8804,-61.7017,9.5526,-45.8164,-38.5912,-98.5987,-64.4575,-93.9994,-42.8759,-39.9993,-49.1
CBA,19,319.5762,195.7957,136.0521,64.4952,-18.019,18.0637,19.6099,-46.0085,-79.3719,-43.7509,161.0036,-21.0011,-7.9111,-99.1689,-24.2088,-52.5861,106.7402,15.6889,2.0779,-44.0242,-50.8804,-63.9517,9.2052,-46.2586,-38.9389,-100.7937,-68.524,-97.4841,-45.8953,-41.655,-48.4895
CBA,0,45.7898,-67.9291,31.1714,-23.4528,60.0924,16.0663,76.5306,6.337,28.6741,36.852,50.6768,129.8095,96.9972,53.1476,78.1524,35.3217,12.0171,-14.1287,90.5628,38.9879,48.1888,54.6921,3.6474,-10.5254,22.8592,30.5542,87.4719,62.2016,22.3438,29.8905,84.4206
CBA,1,45.2704,-66.6261,28.502,-21.2651,58.7803,18.4111,76.3571,6.7711,29.1059,36.59,54.6079,120.3893,97.6851,52.7183,77.1876,35.7621,12.1055,-13.8687,88.658,38.6405,48.3624,54.7786,3.5605,-10.5254,22.8592,30.4664,86.9528,62.7243,20.7046,29.1934,83.9845
CBA,2,45.1838,-65.7575,25.316,-17.8521,56.5061,20.4954,75.7497,7.2051,28.6741,36.0661,62.8119,97.0547,97.2552,50.8294,76.3104,36.2906,12.3706,-13.6953,87.3593,37.7722,47.9283,54.7786,2.9526,-10.7907,22.5116,29.9396,85.7415,60.8949,18.9793,27.9734,83.6357
CBA,3,45.6166,-63.9333,23.4216,-12.514,55.1065,21.1033,75.2291,7.3787,27.724,35.6295,70.6741,71.5594,94.7615,47.1374,75.8719,36.4668,13.5192,-13.782,86.2338,35.7751,47.1469,54.7786,2.171,-11.0561,21.9901,29.1494,84.0976,57.5844,17.3401,26.4919,83.374
CBA,4,45.1838,-63.1515,22.7328,-5.7757,54.4068,21.5375,74.2746,6.7711,25.5648,34.4942,73.1524,56.0895,89.86,41.213,74.3807,35.5859,14.6679,-14.3887,83.7229,32.3018,45.3235,54.0863,0.6079,-11.8521,21.034,27.6568,81.5885,52.5316,15.1834,24.0519,82.5019
CBA,5,43.1064,-63.8464,21.8717,1.4877,53.5321,23.1007,72.3657,5.2953,21.851,32.4857,70.2468,54.6203,84.4426,32.1977,70.7845,33.1196,14.933,-15.7756,79.3074,27.1786,41.7636,52.3556,-2.171,-13.5326,19.0349,25.1106,77.6951,45.8236,12.0777,19.2589,80.4961
CBA,6,39.3844,-65.5837,20.58,7.1759,52.1325,26.4008,69.8494,4.08,17.7918,30.3025,60.59,68.9667,79.7131,23.6975,66.2234,30.6532,14.5796,-17.4225,74.3723,23.0107,37.5959,50.6248,-5.471,-15.3016,16.9489,22.4766,73.8882,39.0285,9.2308,13.9431,78.4902
CBA,7,35.0564,-69.1452,18.8579,7.4384,50.6455,30.1351,68.2008,4.1668,15.6326,29.8659,46.233,79.5969,76.1015,20.6065,63.6797,30.3009,13.3425,-17.9426,71.4286,22.4897,35.078,50.6248,-7.2947,-15.6554,16.2535,21.7743,71.8117,35.1082,8.3681,11.4159,78.403
CBA,8,32.6328,-71.8381,18.5995,1.4877,50.5581,31.351,68.114,5.1217,15.2871,30.8265,33.1579,70.0902,74.2097,23.9551,63.592,31.6222,11.3102,-17.4225,71.5152,25.442,34.6438,51.8363,-7.3815,-14.8594,16.8619,22.4766,71.033,33.8886,8.8857,11.8516,79.5367
CBA,9,33.0656,-70.7088,20.8384,-7.2634,52.4824,28.4851,69.1552,5.7294,15.8053,31.7871,23.7574,60.9292,73.8658,31.6825,64.9954,33.2957,9.4546,-16.3824,73.6797,29.4363,35.3385,52.7883,-6.4263,-14.0633,17.818,23.4424,70.687,33.9757,8.7995,13.3331,79.8856
CBA,10,34.7102,-67.4948,22.7328,-15.0518,54.3193,24.2297,70.8038,6.2502,17.4463,32.835,18.5445,79.9426,74.8117,40.4403,67.1883,34.7932,8.2176,-14.9955,76.8831,33.6043,36.7277,53.5671,-4.6895,-13.1788,19.2956,24.935,71.8982,35.8051,8.3681,15.2503,79.3623
CBA,11,36.7011,-66.2787,23.7661,-24.2404,55.194,21.4507,72.7995,7.2051,20.21,34.4942,21.3646,121.772,76.8755,48.597,69.3811,36.5549,6.8922,-13.2619,80,37.8591,38.8983,54.6056,-2.4316,-12.029,21.1209,27.2178,74.1478,39.6383,8.3681,17.2546,78.6646
CBA,12,37.1339,-68.624,23.68,-32.4664,54.3193,20.9296,74.5349,8.4204,23.1466,36.1534,26.4066,163.0829,79.3692,54.8649,71.0476,38.3165,4.9482,-11.875,82.2511,41.8534,41.2427,55.4709,-0.1737,-10.7907,22.8592,29.6762,75.6186,44.1684,8.6269,18.9103,78.0541
CBA,13,34.5371,-72.1855,18.3412,-36.4044,50.9079,22.4059,75.5761,9.7226,25.5648,37.5506,24.0993,190.5659,81.089,58.0417,72.1879,40.2544,2.4741,-10.8349,83.4632,45.7608,43.1529,56.3363,1.3895,-9.6409,24.163,31.4322,75.5321,48.1758,9.4896,20.2175,78.1413
CBA,14,31.8537,-73.6623,11.4525,-36.9294,47.4966,24.1428,76.0968,10.8511,26.774,38.5986,22.3901,199.2084,80.1431,58.0417,72.8896,42.0161,0.972,-10.1415,83.3766,49.1473,44.4552,57.2017,2.171,-8.7564,24.8583,32.0468,74.8399,50.8764,11.3013,21.6118,79.1879
CBA,15,30.6419,-72.8805,7.7498,-35.0042,46.0096,24.4034,76.01,11.0247,26.3422,38.5112,20.51,192.1216,76.4455,55.7235,72.8019,42.4565,1.2371,-10.1415,81.645,50.9708,44.7157,57.1152,1.9105,-8.8449,24.5976,30.9054,73.4556,51.6604,12.3365,22.0475,79.3623
CBA,16,30.5554,-72.7936,8.2665,-32.2914,46.5344,22.4928,75.7497,10.0698,24.6148,37.114,10.255,172.5032,72.4899,52.7183,72.1002,41.4876,2.1207,-10.6615,79.3074,50.9708,44.2816,55.644,0.9553,-9.9947,23.6415,28.7104,71.033,50.4408,11.3876,21.6118,77.7925
CBA,17,30.1226,-75.5733,12.3997,-30.1036,48.7212,19.3664,75.3158,8.5072,22.2829,34.7562,-6.4094,146.0573,69.2223,49.5415,70.8722,39.5497,2.6508,-11.4416,76.71,49.0605,43.066,53.4806,-0.4342,-11.5868,22.1639,26.252,68.0914,48.0015,8.8857,19.6075,75.1762
CBA,18,29.1704,-78.7874,18.6856,-27.5658,51.9576,17.1953,74.7952,7.1183,20.0373,32.049,-12.2206,125.1426,68.0184,48.0819,69.118,37.0834,3.4461,-12.3084,74.1991,45.7608,41.3295,51.2306,-1.8237,-13.2673,20.6863,23.9692,65.3227,45.1267,5.435,16.0346,71.9493
CBA,19,28.5645,-80.1772,22.3022,-25.6406,54.1444,16.4137,74.6217,6.5106,18.8282,30.3025,4.5293,114.0803,70.1682,48.4253,67.89,35.4979,4.5064,-12.7418,73.0736,42.548,40.1139,50.1056,-2.6053,-14.3287,20.1648,23.0912,63.9384,43.2972,2.7606,12.8102,69.5946
CBA,0,-150.4397,-65.1494,25.4882,-63.1826,19.5934,-4.9502,-20.2173,-38.4562,-44.7385,-31.7871,-50.5059,-24.7174,-1.6338,83.5423,32.9801,-46.8607,17.142,-27.9107,-7.0996,11.4619,11.4611,-33.6633,-28.7446,-49.7081,29.1173,-0.6146,-81.4155,-37.7217,-28.9002,12.1131,21.5412
CBA,1,-151.3053,-65.2363,24.541,-62.745,19.2436,-5.2975,-19.0893,-38.4562,-40.9383,-31.1758,-52.8133,-24.026,-5.3314,89.7242,34.3836,-46.2441,16.4352,-27.4773,-8.7446,14.9352,14.6737,-33.4037,-26.9209,-49.1774,30.421,1.4048,-79.512,-31.972,-27.6062,16.296,21.7156
CBA,2,-151.9112,-65.41,23.8522,-61.6074,18.7187,-5.2975,-18.2216,-38.6298,-38.3473,-31.5251,-54.6079,-22.8161,-8.599,92.4718,35.3484,-46.5964,15.9934,-27.0439,-10.3896,16.8455,17.1917,-34.5287,-25.7052,-49.2659,31.2033,2.4584,-78.0412,-28.0517,-26.7435,19.6946,20.3202
CBA,3,-152.5171,-66.0181,23.3355,-60.7323,17.7566,-4.9502,-18.048,-38.8034,-37.57,-32.573,-56.2316,-21.8654,-11.3507,91.8707,35.2607,-47.4773,16.0817,-26.8705,-11.9481,17.4534,18.0599,-36.346,-25.6183,-49.7966,31.2902,2.195,-77.6086,-27.1805,-26.571,20.9147,18.576
CBA,4,-152.8634,-66.8867,23.0772,-59.8572,16.6194,-4.2554,-18.5687,-38.4562,-38.0882,-33.4463,-57.2571,-21.0876,-12.8986,89.7242,34.2958,-47.7415,16.3468,-26.6972,-13.0736,17.7139,17.3653,-37.471,-26.0525,-50.0619,31.2902,1.6682,-77.4355,-28.5744,-26.2259,20.3918,18.0527
CBA,5,-152.9499,-67.7554,22.905,-58.8946,15.4823,-3.4738,-19.4363,-37.8485,-39.8155,-33.7956,-57.6844,-20.7419,-13.3285,88.5222,32.8047,-47.213,16.3468,-26.6105,-13.6797,18.0612,15.6288,-37.7306,-27.1815,-49.6197,31.2902,0.9658,-77.4355,-31.8849,-25.2769,18.2132,19.4481
CBA,6,-152.5171,-68.1897,23.1633,-57.8444,14.5201,-2.8659,-20.5643,-37.0673,-42.1474,-33.7083,-57.428,-20.4826,-12.6406,89.5525,31.0505,-46.156,16.877,-26.6972,-13.6797,18.5822,13.1977,-37.3845,-28.5709,-48.8236,31.2902,0.2634,-77.4355,-36.1536,-23.9829,15.3374,21.1924
CBA,7,-151.6516,-68.1028,23.8522,-57.3194,13.8204,-2.3448,-21.6924,-36.286,-44.4794,-33.4463,-56.5735,-20.3962,-11.3507,92.9869,29.4716,-45.0109,17.7606,-26.7839,-13.1602,19.1032,10.8533,-36.6922,-30.1341,-47.9391,31.3771,-0.3512,-77.2625,-40.161,-22.6026,12.6359,22.0645
CBA,8,-150.3531,-67.1473,24.7994,-56.8818,13.7329,-1.9106,-22.6468,-35.3311,-46.1204,-32.7477,-55.0352,-20.1369,-9.4589,97.3658,28.4191,-43.6016,18.8209,-26.6972,-12.2078,19.9715,8.9431,-35.6537,-31.263,-47.0547,31.8117,-0.3512,-76.8299,-42.8616,-21.136,11.0673,22.3261
CBA,9,-148.7085,-65.4969,25.6605,-55.8317,13.8204,-1.4764,-23.2542,-34.5498,-47.1568,-31.9617,-53.0697,-19.5319,-7.5672,101.7447,27.8928,-41.8399,19.6162,-26.5238,-11.1688,21.1872,7.6407,-34.5287,-31.8709,-46.0817,32.4201,0,-76.7434,-44.2555,-19.9282,10.6316,22.3261
CBA,10,-147.1505,-63.499,26.091,-54.8691,13.7329,-1.5632,-23.7748,-34.2894,-48.1068,-31.6997,-51.6169,-18.8405,-6.3633,105.265,27.3665,-40.871,20.1463,-26.5238,-10.4762,22.2292,6.5988,-34.0095,-32.4788,-45.6395,32.7678,-0.0878,-77.6951,-45.0396,-20.1008,10.3702,21.1051
CBA,11,-145.7655,-61.0667,26.6077,-54.2565,13.8204,-1.6501,-24.1219,-34.5498,-49.1432,-32.2237,-50.4205,-18.0627,-6.1053,108.2701,27.2788,-41.4876,20.9416,-26.6972,-10.303,22.837,5.8174,-34.4422,-32.913,-45.9933,32.6809,-0.878,-79.5985,-45.5623,-21.7399,10.1088,17.8783
CBA,12,-144.4671,-58.6345,26.9521,-53.994,14.0828,-2.0843,-24.2954,-35.1575,-50.0069,-33.2716,-49.395,-17.4577,-7.6531,110.3307,27.1911,-43.6016,21.7368,-26.8705,-10.9091,23.0975,5.3833,-35.6537,-33.1735,-46.8778,32.2463,-2.0194,-81.8481,-45.9107,-24.328,9.7602,13.3433
CBA,13,-143.0822,-56.376,27.2965,-53.3814,14.6951,-2.5185,-24.1219,-35.8519,-50.0069,-33.9702,-48.6258,-16.9392,-10.5768,109.0428,27.4542,-45.8037,22.0903,-26.7839,-12.0346,23.4448,5.4701,-36.5191,-32.9999,-47.6738,31.8117,-2.5462,-83.4054,-45.388,-26.2259,9.8473,10.1165
CBA,14,-141.7838,-54.5518,27.3826,-52.8563,15.2199,-2.8659,-23.8616,-36.4596,-49.2296,-34.1449,-48.284,-16.9392,-13.9305,101.0578,27.5419,-47.8296,22.267,-26.6105,-13.5931,23.0107,6.0779,-36.9518,-32.6525,-48.3814,31.3771,-2.634,-84.2706,-43.9941,-27.3474,9.8473,9.07
CBA,15,-140.7451,-53.3356,27.5549,-52.6813,15.7447,-2.779,-23.6013,-36.6332,-47.4159,-33.3589,-48.0276,-16.8528,-15.9942,85.9464,27.8928,-48.6224,22.5321,-26.1771,-14.9784,21.9687,7.2934,-36.346,-31.8709,-48.4698,31.551,-1.9316,-83.9245,-41.4677,-26.8298,10.1088,10.9014
CBA,16,-140.1392,-52.7276,27.641,-52.8563,16.0946,-1.9974,-23.1674,-36.0256,-44.6521,-31.3504,-47.8567,-16.5071,-15.9942,66.7995,28.4191,-48.0058,22.7972,-25.4837,-15.9307,20.6662,9.03,-34.5287,-30.742,-47.5854,32.4201,0,-82.1941,-37.6346,-24.328,10.7188,15.3492
CBA,17,-140.1392,-52.9882,27.2965,-53.0314,15.8322,-0.9553,-22.9071,-35.0707,-41.802,-28.556,-47.8567,-16.0749,-14.2744,47.8243,28.5068,-46.3322,22.3554,-24.9636,-16.5368,19.1032,10.5929,-31.9326,-29.6999,-45.9933,33.3762,2.2828,-80.0311,-33.9757,-20.4458,10.8931,21.3668
CBA,18,-140.7451,-53.8568,26.4354,-53.4689,15.045,0.1737,-22.9939,-34.029,-39.9883,-25.8488,-48.1985,-15.7292,-12.2106,32.3694,27.9805,-44.042,21.5601,-24.7902,-16.9697,17.1929,11.3743,-28.9037,-29.3525,-44.1359,33.9846,3.8632,-79.2525,-31.972,-16.3049,10.1959,27.9076
CBA,19,-141.7838,-54.9861,24.9716,-54.8691,13.9078,1.129,-23.7748,-33.2477,-40.0746,-24.3643,-48.9677,-15.9885,-11.1788,21.7227,26.6648,-42.1922,20.7649,-25.137,-17.5758,14.9352,10.8533,-26.3941,-30.1341,-42.6322,33.637,3.5998,-81.2424,-32.756,-14.0619,8.7144,33.9252
CBA,0,-56.5231,-203.0056,-27.7271,-121.027,-43.5604,-57.9255,-15.3582,-96.6179,-78.2492,-28.4686,-68.4522,-85.9923,-105.3383,-55.1224,-60.5221,-18.3215,-48.4219,-138.1666,-5.8009,-199.3679,-9.3773,-8.7404,-122.4468,-47.7622,-62.4066,-112.3832,-99.9308,-125.1002,-50.2088,-128.6252,-88.8683
CBA,1,-56.6962,-201.5288,-26.6938,-119.8894,-43.298,-58.6202,-14.5773,-98.0069,-77.1264,-31.6997,-69.8195,-87.548,-104.1344,-51.4304,-58.9432,-20.5236,-47.8033,-138.6,-3.7229,-197.1102,-7.4671,-13.1538,-121.5784,-49.7966,-63.1888,-113.349,-100.1903,-122.4867,-55.73,-125.9237,-99.3337
CBA,2,-57.7349,-200.139,-26.0049,-118.6642,-43.2105,-58.0123,-14.4905,-99.1354,-77.1264,-35.4548,-74.6052,-89.9678,-105.1663,-47.3091,-58.417,-22.1972,-46.9197,-139.2067,-2.3377,-192.1608,-6.6857,-17.4807,-121.7521,-51.9193,-64.3187,-114.9294,-100.3634,-121.964,-60.8199,-124.4423,-109.6246
CBA,3,-59.7258,-199.7915,-26.0049,-118.8393,-43.298,-57.4912,-14.8376,-99.8299,-78.0764,-38.6859,-80.9291,-93.0791,-106.8861,-43.102,-58.5047,-23.078,-46.3896,-139.8135,-1.645,-186.343,-6.8593,-20.9422,-122.5337,-53.8652,-65.2748,-116.861,-100.1903,-122.748,-64.3569,-123.3965,-117.4737
CBA,4,-61.8032,-200.2258,-26.6077,-120.0644,-42.5982,-58.0991,-14.7508,-100.1771,-78.5083,-40.6071,-85.2875,-94.2891,-106.6281,-38.6372,-58.1538,-23.078,-46.9197,-139.9868,-0.4329,-181.2198,-6.9461,-22.673,-122.8811,-54.8381,-65.5356,-117.8268,-99.4982,-123.1836,-65.3059,-121.8279,-121.0493
CBA,5,-63.6209,-201.442,-26.5215,-121.9896,-41.1112,-60.0966,-13.536,-99.8299,-77.2991,-40.2578,-85.1166,-93.9434,-104.2204,-34.8594,-56.575,-21.7567,-47.715,-139.2934,1.8182,-177.9202,-5.7306,-21.9807,-121.9258,-54.3959,-64.6664,-116.9488,-97.1621,-121.1799,-62.8041,-118.7779,-118.869
CBA,6,-65.5252,-203.8742,-27.3826,-124.615,-41.3736,-62.5282,-11.9742,-98.9618,-74.2762,-38.0746,-81.8691,-93.857,-101.9847,-32.5411,-54.119,-19.8189,-48.4219,-138.0799,4.329,-177.0519,-2.9521,-19.4711,-119.8416,-52.6269,-62.9281,-114.5782,-93.4418,-115.8658,-57.973,-114.2464,-112.0666
CBA,7,-67.9489,-207.4357,-30.052,-126.8027,-43.4729,-63.8309,-10.5859,-98.0069,-70.6488,-35.3675,-78.2799,-94.5483,-100.2648,-30.8239,-51.8385,-18.2334,-49.3055,-137.0397,6.1472,-178.3544,0.4341,-16.6153,-117.4969,-50.5926,-61.2766,-112.032,-89.8079,-109.0706,-53.1419,-109.2791,-103.6943
CBA,8,-70.0263,-210.5629,-32.9797,-126.8902,-45.7472,-63.3967,-9.4579,-97.1388,-67.1941,-33.0096,-76.3998,-95.0669,-98.545,-28.6774,-49.9088,-16.9121,-50.1891,-136.2596,7.1861,-180.9593,3.5599,-13.9326,-115.4995,-48.9121,-59.9729,-109.6615,-87.2123,-102.8853,-48.7422,-104.6605,-95.2348
CBA,9,-70.5457,-211.6053,-35.1324,-123.9149,-46.7968,-61.1387,-8.4166,-96.0971,-64.2576,-30.7391,-77.1689,-94.3755,-97.0832,-26.2733,-48.3299,-15.5028,-50.7193,-135.4795,7.0996,-183.738,6.1647,-11.3365,-113.7627,-47.2316,-58.9299,-107.4665,-85.7415,-97.8325,-44.7738,-100.5647,-87.3857
CBA,10,-69.5935,-210.476,-36.0796,-119.6269,-47.3216,-57.9255,-7.8092,-95.229,-62.0984,-28.6433,-79.5618,-93.1656,-96.5673,-25.1571,-47.5405,-14.0934,-50.3658,-134.9594,5.2814,-185.822,7.9012,-9,-112.6337,-45.9933,-58.1476,-105.6227,-85.0493,-94.0865,-41.4956,-97.7761,-80.9321
CBA,11,-67.1699,-207.6095,-35.7352,-116.1264,-47.5841,-54.8859,-8.0696,-94.4477,-61.1483,-26.7221,-81.3564,-90.6592,-96.9972,-28.7633,-48.2422,-12.7722,-49.4822,-134.7861,1.9048,-186.5166,8.2485,-6.75,-112.5469,-44.8434,-57.713,-104.3935,-84.9628,-92.7797,-38.3036,-97.4275,-76.0483
CBA,12,-63.2747,-203.4399,-33.9269,-114.1137,-47.2342,-53.4095,-8.9372,-93.6665,-61.8393,-24.5389,-79.9891,-86.4245,-98.1151,-37.521,-50.3473,-10.9224,-48.5986,-135.0461,-2.1645,-185.0405,7.033,-4.0673,-113.3285,-43.7821,-57.713,-103.6911,-85.655,-94.9577,-35.0254,-100.8261,-71.6877
CBA,13,-58.6005,-198.4017,-31.2575,-113.4136,-46.1845,-53.149,-10.4123,-92.7116,-64.5167,-22.3557,-76.7416,-80.8069,-101.0388,-45.4202,-53.8559,-8.1918,-47.8033,-135.5662,-6.6667,-180.8725,4.0809,-1.0385,-115.239,-42.7207,-58.0607,-103.6911,-87.3854,-101.2301,-31.9197,-108.4077,-66.9783
CBA,14,-54.186,-193.5372,-27.9854,-113.6761,-44.0852,-53.4964,-11.6271,-91.4094,-67.7123,-19.5613,-72.7251,-75.1893,-104.6504,-49.2839,-57.2767,-4.8446,-46.8314,-135.9996,-10.4762,-175.6625,0.521,2.5096,-117.3232,-41.3939,-58.4084,-103.6911,-89.2023,-108.9835,-28.9865,-116.7736,-61.3096
CBA,15,-50.8102,-189.9757,-24.7994,-114.3762,-41.2862,-54.1043,-11.9742,-90.0205,-69.7851,-15.8062,-68.1103,-71.2137,-107.66,-50.2284,-59.2064,-1.5855,-45.8594,-135.9996,-12.8139,-171.9287,-1.9102,6.6634,-118.539,-39.7134,-58.2345,-102.5497,-89.981,-114.3848,-25.8808,-121.7408,-54.4199
CBA,16,-49.1656,-188.6727,-23.0772,-115.1638,-38.837,-54.8859,-11.3668,-88.8052,-70.0442,-11.6145,-63.752,-70.0902,-108.7779,-48.9405,-59.3818,0.9689,-45.771,-135.6529,-13.1602,-169.8447,-2.6916,10.8173,-118.539,-37.7676,-57.5392,-100.6181,-89.5484,-115.9529,-23.8103,-121.9151,-48.3151
CBA,17,-49.2521,-189.5413,-23.3355,-115.8639,-37.4375,-55.4938,-10.3256,-88.0239,-69.0078,-8.1214,-61.7864,-72.7694,-109.1219,-45.9354,-58.1538,2.8187,-46.3012,-134.9594,-12.1212,-168.1081,-1.997,14.4519,-117.7574,-35.9101,-56.4962,-98.5109,-87.991,-114.2105,-23.2927,-118.4293,-44.565
CBA,18,-50.1177,-191.5393,-24.6271,-116.2139,-36.8252,-55.2333,-9.2843,-87.5899,-67.4532,-6.0256,-62.2137,-76.5721,-110.4117,-42.4151,-56.3118,3.7876,-46.5663,-134.006,-10.4762,-166.5451,-0.6078,16.7884,-116.7153,-34.495,-55.4532,-96.8427,-85.3089,-111.2486,-23.8966,-114.2464,-45.1755
CBA,19,-50.8102,-193.5372,-25.316,-115.7764,-36.0379,-54.3648,-8.3299,-87.503,-66.6759,-5.9382,-61.6155,-78.1277,-112.1315,-39.4958,-54.733,3.171,-46.0361,-133.0525,-8.9177,-167.0661,0.2605,16.7884,-115.9337,-34.0527,-54.7578,-95.9647,-82.7998,-110.0289,-25.4495,-112.5035,-51.2803
CBA,0,2763.053,2313.4121,32.3769,23.3653,-23.967,-17.1084,82.5177,-12.0664,19.6055,-4.3664,615.5569,370.2423,4.8155,-22.2379,24.8228,46.4203,-46.1245,131.4923,-20,12.8512,-46.1918,-35.3941,-10.2473,-55.7226,72.2282,53.6454,-42.3949,48.9598,29.5904,-46.0994,-12.9945
CBA,1,2751.5408,2308.7212,33.4964,24.1529,-23.967,-16.5005,82.5177,-11.806,20.4692,-4.4537,609.3184,366.5261,0.172,-23.3541,24.8228,47.3892,-46.6547,131.5789,-25.4545,15.2826,-44.1948,-36.2595,-9.7263,-55.1919,72.402,53.9966,-40.578,50.0923,31.6609,-44.618,-12.384
CBA,2,2742.2788,2300.5559,34.5297,24.5905,-24.0544,-15.9794,82.2574,-11.806,21.2465,-5.5016,602.6526,361.9456,-4.6435,-24.3844,23.6825,47.1249,-46.8314,131.4923,-37.4892,16.6719,-43.2397,-38.596,-9.6394,-55.2804,72.1413,53.821,-39.6262,50.7893,31.7471,-43.3108,-14.7387
CBA,3,2737.8643,2291.7825,35.4769,25.203,-23.8795,-15.111,82.2574,-11.4587,22.3692,-5.6763,597.3542,357.7108,-7.3952,-24.2985,21.5774,46.3322,-46.6547,131.5789,-51.9481,15.9772,-42.8055,-40.4998,-9.2921,-55.1919,72.2282,54.26,-39.3667,51.7476,29.8492,-41.5679,-17.8783
CBA,4,2738.73,2285.2676,35.6491,26.5157,-23.8795,-14.3294,82.3442,-11.2851,22.8011,-4.6283,594.0214,353.9081,-7.6531,-23.3541,18.4198,45.1871,-46.5663,131.6656,-63.8961,12.9381,-43.5002,-40.9325,-9.2052,-54.8381,72.3151,54.7868,-40.8375,50.8764,26.8298,-41.3065,-20.4075
CBA,5,2743.4041,2283.009,35.563,28.6159,-24.0544,-13.4609,81.8235,-11.0247,22.1101,-2.1832,592.3976,351.1425,-5.5034,-20.6924,15.6129,44.3063,-46.0361,131.7523,-67.4459,9.2911,-45.2367,-38.9422,-9.6394,-54.1306,72.402,55.0502,-44.0388,47.3917,23.7241,-43.2236,-21.2796
CBA,6,2748.511,2283.3564,35.0463,30.3661,-24.7542,-13.0267,80.6088,-10.8511,20.21,0.4366,591.2867,349.2412,-2.6657,-16.3994,14.4727,43.9539,-45.0642,131.6656,-60.7792,6.773,-47.7547,-35.6537,-10.5947,-53.423,72.2282,54.3478,-48.3648,41.9033,20.1008,-47.1451,-21.8028
CBA,7,2751.5408,2282.6614,33.1519,30.4537,-26.0663,-13.2872,79.4808,-10.5906,18.0509,3.2311,591.0303,347.9448,-0.8599,-11.2477,14.8235,44.8348,-44.6223,131.4056,-47.7922,6.5993,-50.3595,-31.673,-11.8105,-52.6269,72.1413,53.5576,-52.6908,36.2407,16.3049,-51.7638,-21.7156
CBA,8,2752.0601,2279.3606,29.9659,29.5786,-27.5533,-13.7215,78.9602,-9.8962,16.8417,6.6369,592.9958,347.772,-0.43,-5.9244,16.5778,47.6534,-44.7991,131.4056,-33.7662,9.1174,-51.8355,-26.9999,-12.2447,-51.2117,72.402,53.7332,-55.3729,32.6689,13.2855,-55.2496,-19.6225
CBA,9,2750.1558,2274.2356,26.4354,28.791,-28.7779,-13.5478,79.0469,-8.7677,16.8417,9.2567,597.6106,349.2412,-0.7739,-1.3738,19.56,51.6172,-45.1525,131.6656,-22.9437,13.1986,-52.0092,-23.1922,-11.8973,-49.7966,72.9235,54.4356,-56.0651,31.7106,11.6464,-56.9053,-15.1748
CBA,10,2746.6067,2268.8499,23.2494,28.791,-29.4776,-12.853,79.4808,-7.5523,17.5326,9.5187,604.02,352.0068,-1.8058,1.202,22.4546,55.581,-45.1525,131.839,-16.4502,17.627,-51.1409,-21.2018,-11.2894,-49.0005,73.2712,54.3478,-55.1999,32.8432,11.4738,-56.6439,-8.3723
CBA,11,2742.9714,2265.2014,20.58,29.5786,-29.5651,-11.5504,80.4352,-6.337,19.0009,8.82,610.6857,355.4638,-3.3536,1.6313,24.2088,58.752,-45.3292,132.3591,-13.5931,22.316,-49.578,-20.0768,-10.1605,-48.116,73.7927,54.6112,-52.8638,35.6309,13.2855,-55.0753,-0.0872
CBA,12,2738.9895,2263.4641,17.7384,30.1036,-30.1774,-10.3345,81.4765,-5.2085,20.2964,8.4707,615.9841,358.575,-6.3633,0,24.2088,61.3065,-46.1245,132.9658,-14.3723,26.484,-47.9283,-19.4711,-9.2921,-46.9662,74.575,55.0502,-50.8738,38.0702,15.7873,-53.8553,6.5408
CBA,13,2734.7483,2261.8137,15.0691,29.491,-31.3145,-9.6398,82.0839,-4.514,20.901,7.7721,618.9752,360.9085,-10.0609,-2.4041,23.244,63.3324,-46.9197,133.3125,-17.9221,29.4363,-47.0601,-19.9903,-9.1184,-46.3471,74.8357,54.699,-50.5278,39.2898,17.2539,-53.1581,9.07
CBA,14,2731.0261,2259.1208,13.433,27.8283,-32.2767,-9.2055,82.3442,-4.08,20.7283,6.2876,620.7698,362.2913,-12.8986,-4.4647,22.5423,65.006,-47.2732,133.4859,-22.8571,30.9993,-46.9732,-21.4615,-9.2921,-46.6124,74.7488,53.4698,-51.1334,39.4641,18.3754,-52.2867,7.7618
CBA,15,2728.5159,2255.3855,12.9163,25.378,-32.889,-9.0319,82.4309,-3.9932,20.2964,5.065,622.0517,361.8592,-14.1024,-6.8688,21.9283,66.5034,-47.5383,133.5726,-27.5325,31.6071,-47.6678,-22.4999,-9.7263,-47.1431,74.4881,52.3284,-51.9121,39.1156,19.6694,-50.9795,4.7094
CBA,16,2728.1697,2251.9109,13.8635,23.6278,-32.714,-8.8582,82.6912,-3.646,20.3828,6.0256,624.53,360.3035,-13.1565,-10.2174,21.7529,68.177,-47.6266,134.006,-30.5628,31.6071,-48.7966,-21.4615,-9.9868,-46.9662,74.8357,52.8552,-52.0851,38.9414,20.187,-49.4109,2.7036
CBA,17,2729.7278,2249.9131,16.7051,22.9278,-31.6644,-8.6845,82.8648,-3.1251,20.7283,9.344,628.8884,358.7479,-10.5768,-14.3387,22.5423,69.0579,-47.0081,134.4394,-31.4286,30.7388,-50.099,-18.3461,-10.0736,-46.0817,75.618,54.6112,-52.0851,38.68,18.8067,-48.1037,2.9652
CBA,18,2732.0649,2250.1736,20.4939,23.1028,-30.5273,-8.6845,82.6045,-2.9515,20.3828,13.2737,634.6995,358.4022,-6.3633,-18.7176,24.1211,68.9698,-45.5943,134.6127,-30.2165,29.0021,-51.575,-14.6249,-10.421,-45.1972,76.1395,55.9282,-52.6043,37.4604,15.9598,-48.0166,4.4478
CBA,19,2734.2288,2253.3877,23.9383,23.8029,-29.74,-9.0319,82.3442,-3.7328,19.0873,13.9723,641.1089,359.6985,-0.172,-22.152,26.1385,67.5604,-44.0922,134.266,-27.1861,26.7445,-53.0511,-13.1538,-11.2894,-45.551,75.8787,55.138,-53.2964,35.6309,13.2855,-48.9752,5.7559
CBA,0,139.7064,107.8006,74.312,117.0891,-40.4115,46.3751,0.5206,-5.7294,-46.6386,-79.817,-14.2716,98.2646,35.514,69.1177,-18.5952,-22.3733,19.3511,-65.2694,3.6364,-58.4384,3.4731,-63.519,-7.2079,-59.9682,-12.7768,-71.1175,21.9761,-28.4873,31.057,-33.8992,-28.082
CBA,1,138.8408,105.1077,73.7092,115.4264,-41.0238,45.333,0.6942,-7.1183,-44.9976,-84.096,-13.417,95.5854,35.772,64.8247,-17.5426,-26.0729,18.5558,-66.0495,3.6364,-59.9146,5.7306,-68.2786,-6.6,-62.3563,-13.7329,-72.9613,16.1793,-23.2603,23.1202,-32.7663,-35.8439
CBA,2,138.8408,103.5441,73.537,114.9888,-41.0238,44.9856,0.8677,-8.4204,-43.8748,-89.3356,-11.8787,94.1162,36.288,60.4458,-16.4024,-29.7724,17.8489,-66.8296,3.8095,-62.0854,7.7276,-73.4709,-5.9921,-65.0097,-14.7759,-74.9807,11.8533,-19.6885,18.2891,-31.6334,-42.9952
CBA,3,139.793,103.631,73.8814,115.3388,-40.4989,45.1593,1.3015,-9.4621,-42.9248,-94.4879,-9.8277,94.0298,37.0619,57.0972,-14.8235,-33.0315,17.8489,-67.263,4.4156,-63.9957,9.5509,-78.5766,-5.2105,-67.4863,-15.5582,-77.0001,9.5172,-17.859,16.3049,-30.3263,-49.2744
CBA,4,141.6107,105.1077,74.7425,115.8639,-39.6242,45.4198,1.8222,-10.2434,-42.5793,-99.2909,-7.3494,95.1533,38.0938,55.4659,-13.3324,-35.4979,18.4675,-67.4364,5.4545,-65.2982,10.9402,-83.0766,-4.6026,-69.6091,-16.1666,-79.1951,8.9116,-18.7302,16.7363,-29.4548,-53.9838
CBA,5,144.294,107.8874,75.9481,116.739,-38.4871,45.6803,2.0825,-10.8511,-43.7021,-103.5699,-4.2729,97.4004,39.6416,55.4659,-12.0167,-36.9953,19.4394,-67.6097,6.7532,-65.6455,11.2006,-86.7112,-4.3421,-71.4665,-16.8619,-81.5656,9.4307,-22.7376,18.8067,-29.0191,-56.5129
CBA,6,147.6698,111.7095,77.4119,118.2267,-37.2625,45.854,2.3428,-11.1115,-45.4294,-106.801,-0.94,100.0795,41.7054,56.5821,-10.8764,-37.4357,20.4998,-67.6964,8.5714,-65.1245,10.9402,-89.0477,-4.0816,-72.8817,-17.2965,-83.4094,11.4207,-27.1805,21.6536,-27.7119,-56.6002
CBA,7,151.3919,116.0528,79.3063,120.0644,-35.6006,46.8093,3.2972,-10.5038,-45.1703,-107.4123,2.3074,103.1044,44.2851,58.8144,-8.5082,-36.4668,22.0019,-67.1763,10.9091,-64.1694,12.1557,-89.1343,-2.6053,-72.7932,-16.6012,-83.0582,15.4871,-26.8321,25.7083,-23.0061,-53.8094
CBA,8,153.9886,119.3537,80.6841,121.4646,-34.201,48.0252,5.2062,-9.2885,-41.5429,-105.1418,4.0165,105.0921,46.3488,61.1327,-4.9996,-34.8813,23.3273,-66.2229,13.3333,-63.2142,15.9761,-87.0574,0.6079,-71.2011,-14.689,-79.8097,21.457,-19.1658,30.2805,-14.466,-49.4488
CBA,9,153.9886,119.6143,80.3396,121.9896,-34.0261,48.9804,7.6357,-7.8128,-34.288,-100.4262,3.162,104.1415,46.9508,62.0771,-0.8771,-33.0315,23.0622,-65.0094,14.9784,-63.1274,22.1408,-83.4228,5.1237,-68.3708,-11.9077,-73.9271,28.8112,-4.7914,34.5077,-3.3115,-44.4778
CBA,10,151.4784,117.0952,78.3591,121.8146,-34.6384,49.5884,10.3256,-5.9898,-24.7875,-93.44,0.3418,100.8573,46.3488,61.9913,3.3331,-30.5651,21.4717,-63.4491,15.9307,-63.1274,29.7815,-78.2305,10.2473,-64.479,-8.6048,-66.2886,36.2519,12.5449,38.5624,7.233,-38.809
CBA,11,147.3236,112.7519,75.5175,120.502,-36.2129,49.5884,12.1477,-4.08,-16.669,-85.5806,-3.8456,96.709,44.4571,61.4761,5.7891,-27.6584,19.4394,-62.409,15.7576,-63.0405,36.0331,-71.9997,14.1552,-60.2335,-5.5627,-59.1768,40.8375,25.3511,41.9269,11.3288,-32.617
CBA,12,142.4763,107.8874,72.5037,118.1392,-38.4871,48.7199,12.408,-2.3438,-13.8188,-78.3324,-8.6313,93.4248,41.7914,61.3903,4.9996,-24.135,17.4071,-61.9756,14.026,-62.1722,37.8564,-65.4228,15.0236,-56.2533,-3.7374,-54.6112,41.0971,26.3094,44.515,5.5772,-26.5122
CBA,13,138.408,104.0653,69.7482,115.7764,-40.7613,47.5909,10.9329,-0.3472,-17.1008,-71.7829,-12.9042,91.7828,39.2116,62.5923,1.228,-19.5546,15.4632,-61.9756,11.342,-59.9146,34.2097,-58.5863,12.9394,-52.5385,-3.0421,-52.5918,38.761,14.897,47.1893,-6.7973,-20.6691
CBA,14,136.3306,102.2411,68.1983,115.1638,-42.0734,47.1567,8.9372,2.257,-24.3557,-65.408,-14.9552,92.5606,38.1798,65.1681,-3.2454,-13.7411,14.3145,-61.7156,9.0043,-56.4412,27.5241,-50.8844,9.5526,-48.6467,-2.6944,-51.7138,36.1654,-3.0491,51.1577,-18.5618,-13.8666
CBA,15,136.5037,102.5017,68.1121,115.9514,-42.4233,47.4172,7.2019,5.3821,-32.3879,-58.7711,-15.1261,95.0669,38.2657,68.4308,-6.9293,-7.6633,14.4912,-61.1955,7.619,-52.5338,20.5779,-42.5768,6.3394,-44.5781,-2.086,-51.187,34.9541,-21.2566,56.5064,-25.8819,-5.8432
CBA,16,137.7155,103.5441,68.7149,117.0015,-42.5108,47.9383,6.0739,8.2468,-39.0382,-52.3089,-14.5279,97.6596,38.3517,70.5773,-9.1222,-2.5544,15.3748,-60.3287,6.7532,-49.842,15.4551,-34.4422,4.1684,-40.6864,-1.3038,-50.3969,35.2137,-35.1953,61.6826,-29.7163,2.7036
CBA,17,138.9274,104.3259,69.0593,117.7891,-42.7732,48.1988,5.3797,10.2434,-43.0111,-46.6327,-14.0152,99.0424,37.8358,70.4915,-10.087,0.4404,15.9934,-59.5486,6.2338,-49.1473,12.7635,-27.4326,3.2131,-37.2369,-0.3477,-49.2555,35.3002,-42.5132,65.0471,-31.8077,10.1165
CBA,18,139.5333,104.4996,68.8871,118.6642,-43.298,48.2857,5.0326,11.3719,-43.9612,-42.3536,-14.2716,99.2153,36.4599,68.345,-10.4379,1.057,16.2584,-59.2019,5.368,-50.363,12.2426,-22.4999,3.2131,-34.8488,0.4346,-47.9385,34.0889,-43.123,65.4784,-32.6792,15.4364
CBA,19,139.1005,103.4573,67.9399,119.0143,-44.2602,48.112,4.512,11.2851,-42.8384,-40.2578,-16.0662,98.4374,34.1382,64.5671,-10.7887,-0.2643,16.3468,-59.3752,3.8961,-53.1416,13.024,-20.423,3.4737,-33.9643,0.6084,-47.4117,30.9742,-39.3769,62.459,-33.1149,17.5295
CBA,0,260.1967,113.8812,87.8311,-26.8657,35.0757,-81.8078,-71.7583,-52.7796,-176.5356,-111.0801,111.6941,-156.5147,-22.3575,-129.0483,-85.8712,-82.887,74.2233,-41.6927,-31.0823,-25.963,-64.9463,-56.3363,-44.7235,-97.205,-5.0412,-121.9534,-71.3791,-110.3774,-132.9411,-104.2248,-114.9445
CBA,1,261.2354,113.5337,88.2616,-26.9532,35.2507,-81.8946,-71.1509,-52.9532,-176.5356,-111.1674,113.3178,-158.3296,-22.2715,-127.8463,-84.8186,-82.887,74.9302,-41.5193,-31.342,-26.0498,-64.4254,-56.9421,-44.2893,-97.4704,-5.1281,-122.3924,-73.8017,-111.3357,-131.8196,-103.9633,-113.898
CBA,2,262.3606,112.7519,88.6061,-27.6533,35.4256,-82.4157,-70.9774,-53.3005,-177.3993,-111.5167,114.9416,-160.2309,-22.1855,-128.7908,-84.2046,-82.799,75.6371,-41.6927,-32.5541,-27.0918,-64.5122,-57.1152,-44.2893,-97.7357,-5.5627,-123.446,-77.7816,-113.6007,-132.9411,-104.4862,-112.677
CBA,3,263.8321,111.7964,88.8644,-28.0909,35.6006,-83.1973,-70.9774,-53.8213,-178.6085,-112.0407,116.9071,-161.6137,-21.7556,-132.4828,-84.0292,-82.887,75.9905,-41.7794,-33.5931,-29.0021,-65.0332,-56.6825,-44.5498,-97.9126,-6.1711,-124.4995,-82.1941,-116.4756,-135.0116,-105.7062,-111.4561
CBA,4,265.5633,110.754,89.0366,-28.0034,35.7755,-84.0657,-71.0641,-54.429,-179.8176,-112.39,118.8726,-162.3915,-20.4657,-137.8061,-84.4678,-83.3275,76.0789,-41.866,-33.6797,-31.4334,-65.8146,-55.9036,-44.8972,-98.0895,-6.7795,-125.3775,-85.828,-119.0891,-137.2545,-107.2748,-110.4095
CBA,5,267.4676,110.0591,89.4672,-27.8283,35.9505,-84.4999,-71.2377,-55.0366,-180.854,-112.9139,120.4963,-162.3915,-18.9179,-142.6143,-84.994,-84.2083,76.5207,-41.9527,-32.381,-33.6043,-66.4224,-55.0382,-45.1577,-98.4433,-7.4749,-126.3433,-88.4236,-121.267,-139.8426,-108.582,-109.9735
CBA,6,269.1988,109.9722,89.9838,-27.8283,36.0379,-84.2394,-71.4112,-55.2971,-181.4586,-113.3506,121.5218,-161.5273,-17.628,-145.4477,-85.3449,-84.7368,77.0509,-42.0394,-30.5628,-34.8199,-66.6829,-54.3459,-45.3314,-98.8855,-7.9964,-127.4847,-90.154,-122.4867,-142.6895,-109.1049,-110.1479
CBA,7,270.6703,110.5803,90.2421,-27.7408,36.0379,-83.6315,-71.5848,-55.3839,-181.8041,-113.6999,121.8637,-160.3174,-16.6821,-146.0487,-85.6957,-84.7368,77.0509,-42.1261,-29.5238,-34.8199,-66.8565,-53.7402,-45.4182,-99.4162,-8.431,-128.3627,-90.9327,-123.0094,-144.9325,-109.192,-110.4968
CBA,8,271.7956,111.5358,90.2421,-27.4783,36.1254,-82.8499,-71.6715,-55.2103,-181.6313,-113.4379,121.7782,-159.2803,-16.3382,-145.276,-86.0466,-84.2083,76.6974,-42.0394,-29.5238,-34.4726,-66.8565,-53.0479,-45.4182,-99.5931,-8.5179,-128.5383,-90.4136,-122.748,-145.709,-109.0177,-110.584
CBA,9,272.1418,112.1438,90.156,-27.6533,36.2129,-82.3288,-71.5848,-55.1234,-181.0267,-112.5646,121.18,-159.2803,-16.9401,-144.1598,-86.0466,-83.4155,76.2556,-42.0394,-30.4762,-34.2989,-66.596,-52.269,-45.2445,-99.5047,-8.431,-127.9237,-88.4236,-121.7026,-144.4149,-108.4948,-109.7991
CBA,10,271.8821,112.4913,90.156,-28.3534,36.3878,-82.1551,-71.4112,-54.863,-180.0767,-111.2547,120.1545,-159.8852,-18.9179,-143.1295,-85.8712,-82.4466,75.9905,-42.0394,-32.2944,-34.6462,-65.9883,-51.4036,-44.984,-99.2393,-8.2571,-126.8701,-85.4819,-120.1345,-141.6543,-107.8848,-107.9676
CBA,11,271.1031,112.4913,90.0699,-28.966,36.4753,-82.1551,-71.1509,-54.6894,-179.1267,-109.9448,118.7872,-161.0952,-21.9276,-142.5284,-85.7835,-81.4777,75.372,-42.2127,-34.3723,-35.1672,-65.3805,-50.4517,-44.7235,-98.8855,-7.9964,-125.6409,-82.4537,-118.3922,-138.4623,-107.2748,-105.7873
CBA,12,270.2375,111.9701,89.9838,-29.5786,36.5628,-82.4157,-70.9774,-54.6026,-178.263,-108.8969,117.7617,-162.9965,-24.6793,-142.4426,-85.4326,-80.773,74.6651,-42.3861,-35.5844,-35.9487,-64.7727,-49.846,-44.5498,-98.5318,-7.8225,-124.6751,-79.7716,-116.5627,-135.5292,-106.4034,-103.5199
CBA,13,269.545,111.1015,90.3282,-30.4537,36.6502,-82.6762,-70.9774,-54.6026,-177.4857,-108.3729,117.2489,-165.5892,-26.2271,-142.4426,-84.9063,-80.5088,74.4884,-42.6461,-35.4978,-36.5566,-64.0781,-49.4998,-44.463,-98.2664,-7.9095,-124.0606,-77.6951,-115.0817,-132.8548,-105.3576,-101.7756
CBA,14,269.1122,110.4934,90.8449,-31.4163,36.8252,-82.5894,-71.2377,-54.6026,-177.3129,-108.2856,117.2489,-167.4042,-26.3131,-141.4122,-84.38,-80.5969,74.5768,-43.1662,-34.1991,-36.4697,-63.9912,-49.4133,-44.6367,-98.178,-8.2571,-123.9728,-76.5703,-114.3848,-131.0432,-104.8348,-100.9907
CBA,15,268.8526,109.9722,91.2754,-31.9413,36.8252,-82.1551,-71.7583,-54.6894,-177.8311,-108.8096,117.6762,-168.182,-24.9372,-139.1799,-84.2046,-80.8611,74.4884,-43.8597,-32.6407,-35.4277,-64.599,-49.846,-45.1577,-98.4433,-9.0394,-124.4995,-77.0895,-115.0817,-130.7843,-105.1833,-101.3396
CBA,16,268.4198,109.451,91.5338,-31.6788,36.4753,-81.7209,-72.5392,-54.9498,-179.0403,-109.7702,118.4453,-168.0956,-22.7875,-136.7758,-84.5555,-81.5658,74.2233,-44.5531,-32.6407,-34.4726,-65.9014,-50.7979,-46.113,-99.2393,-10.1693,-125.5531,-79.2525,-116.9112,-132.5097,-105.9677,-102.7349
CBA,17,267.8138,109.0167,91.8782,-31.4163,36.0379,-81.1998,-73.754,-55.5575,-180.7677,-111.1674,119.2145,-167.2313,-21.0677,-135.1444,-85.608,-82.6228,74.4,-45.4199,-35.2381,-34.2121,-67.638,-52.1825,-47.5893,-100.4776,-11.6469,-127.3091,-82.6267,-119.5247,-135.8742,-107.362,-105.0897
CBA,18,267.1214,108.7561,92.3949,-31.1537,35.5131,-80.7656,-75.3158,-56.252,-182.7541,-112.8266,119.7272,-166.1942,-20.4657,-135.0586,-87.8886,-83.5917,75.0186,-46.2867,-39.6537,-34.5594,-69.7218,-53.5671,-49.5866,-101.8044,-13.2114,-129.3285,-86.4336,-122.4867,-139.8426,-109.802,-107.4444
CBA,19,266.6886,108.5823,92.8254,-30.8912,35.0757,-80.5051,-76.7909,-57.2068,-184.6542,-114.3985,119.7272,-165.5892,-21.0677,-136.5182,-90.6077,-84.3845,75.1953,-47.0668,-43.8961,-35.4277,-71.8925,-54.7786,-51.4972,-102.9542,-14.6021,-130.9089,-89.5484,-125.0131,-143.2934,-112.5035,-109.7991
CBA,0,-178.5714,-471.508,81.8896,-27.8283,47.6715,-36.388,-55.0118,-65.7141,-26.774,-64.2727,-50.7623,15.3836,37.8358,-10.9043,-23.0686,-51.5291,1.6789,-18.9827,-7.3593,-8.8569,-64.7727,-15.4038,-7.0342,-63.8599,-66.9263,-53.821,-47.8456,-98.6166,-76.0896,-49.7595,-81.8914
CBA,1,-180.4757,-476.1987,81.0285,-28.7034,47.9339,-36.6485,-54.4044,-65.6273,-26.5149,-64.2727,-52.386,11.4945,39.1256,-11.9346,-22.2791,-51.5291,0.8836,-18.636,-4.5887,-7.9018,-64.0781,-14.798,-6.6,-63.7714,-66.4917,-53.821,-48.1917,-98.6166,-76.6072,-49.0623,-81.9787
CBA,2,-181.5144,-480.7158,80.4257,-29.0535,48.4588,-36.8222,-53.6235,-65.7141,-26.2558,-64.1854,-52.8133,8.556,40.3295,-12.9649,-21.2266,-52.0576,0.5302,-18.2893,-1.8182,-6.5125,-63.2966,-14.5384,-6.2526,-63.8599,-66.144,-53.821,-48.6243,-98.5295,-77.2111,-48.3652,-82.4147
CBA,3,-182.1203,-485.3196,80.1674,-29.316,48.8961,-36.909,-52.9293,-65.8009,-25.9103,-64.1854,-52.3005,6.2226,41.3614,-13.9094,-19.9986,-52.6742,0.7069,-17.9426,0.9524,-5.21,-62.602,-14.4519,-5.9052,-64.0368,-65.9702,-54.0844,-49.0569,-98.5295,-77.7287,-47.7552,-82.938
CBA,4,-182.6397,-489.6629,79.9952,-29.6661,49.3335,-37.0827,-52.4955,-65.9745,-25.4785,-63.9234,-51.3605,4.6669,42.3073,-14.5104,-18.6829,-53.0266,0.972,-17.6825,3.2035,-3.9075,-61.9074,-14.2788,-5.471,-64.0368,-65.7963,-54.1722,-49.403,-98.5295,-77.9875,-47.2323,-83.1124
CBA,5,-183.2456,-492.4427,79.7369,-29.7536,49.6834,-37.5169,-51.9749,-65.9745,-24.6148,-63.3995,-50.2495,4.4076,43.2532,-14.4246,-17.6303,-52.8504,1.0603,-17.3358,4.5022,-2.8655,-61.126,-13.8461,-4.95,-63.7714,-65.3617,-53.821,-49.403,-98.0939,-77.815,-46.5351,-82.6763
CBA,6,-184.1112,-492.9638,79.3924,-29.7536,50.0332,-37.9512,-51.7146,-65.8009,-23.6648,-62.7009,-49.0531,5.6176,44.1991,-13.4801,-16.8409,-52.3219,0.8836,-16.9024,5.1948,-1.9972,-60.4314,-13.0673,-4.1684,-63.2408,-64.9272,-53.0308,-48.9704,-97.3969,-77.2973,-45.838,-81.9787
CBA,7,-185.4096,-492.0083,79.3063,-30.2786,50.2957,-38.2985,-51.4543,-65.4537,-22.7147,-61.6529,-48.284,7.7782,44.887,-11.8487,-16.2269,-51.5291,1.0603,-16.3824,5.6277,-1.563,-59.3894,-11.8557,-3.3,-62.6216,-64.2318,-51.9772,-48.1052,-96.3515,-76.6072,-45.0537,-81.1065
CBA,8,-187.0542,-490.9659,79.1341,-31.5913,50.6455,-38.5591,-51.1072,-64.9328,-21.4192,-60.343,-48.3695,9.5067,45.4889,-10.2174,-15.5252,-50.296,1.2371,-15.7756,6.4935,-1.3025,-58.0002,-10.298,-2.2579,-61.7371,-63.4496,-50.4847,-46.5478,-94.7834,-75.3132,-44.0951,-79.6239
CBA,9,-188.6988,-491.1397,78.6174,-33.079,50.733,-38.7328,-50.3263,-64.2383,-19.8646,-58.5092,-49.224,9.766,46.0049,-8.7578,-14.6481,-48.5343,0.7952,-14.9955,7.8788,-0.7815,-56.3505,-8.5673,-1.0421,-60.5873,-62.5804,-48.7287,-44.7309,-92.8668,-73.5015,-42.7879,-77.2692
CBA,10,-190.2569,-492.4427,77.7563,-34.1291,50.5581,-38.6459,-49.285,-63.3703,-18.3963,-56.7626,-50.8477,8.9881,46.4348,-7.8133,-13.9464,-46.2441,-0.0884,-14.3021,9.6104,-0.0868,-54.7008,-6.5769,0.0868,-59.349,-61.6243,-47.0605,-43.2601,-91.2116,-71.3448,-41.5679,-74.5657
CBA,11,-191.3822,-494.18,76.9814,-34.8292,50.2082,-38.2117,-48.3306,-62.589,-17.3599,-55.278,-52.6424,7.6054,46.7788,-7.4699,-13.0693,-43.6897,-0.6185,-13.782,11.4286,0.7815,-53.3116,-4.6731,1.2158,-58.1992,-60.8421,-45.9191,-42.5679,-90.0791,-69.8782,-40.6093,-71.5133
CBA,12,-192.2478,-495.8304,76.4647,-35.1792,49.8583,-37.6906,-47.5496,-61.7209,-16.669,-54.0555,-53.8388,5.7904,47.4667,-7.7274,-12.1044,-41.2233,-0.972,-13.4353,13.0736,1.7367,-52.2696,-2.7692,2.171,-56.9609,-60.1467,-45.0411,-42.4814,-89.5564,-69.5331,-39.9993,-68.2865
CBA,13,-193.0268,-497.4809,75.8619,-34.9167,49.4209,-37.2564,-46.8555,-60.766,-16.0644,-52.7456,-54.5225,4.3212,48.3266,-8.2426,-11.1396,-38.6689,-1.3254,-13.0019,13.8528,2.6918,-51.4014,-0.6058,3.0395,-55.5457,-59.5383,-44.1631,-42.5679,-89.295,-69.5331,-39.5636,-64.4492
CBA,14,-194.0655,-499.0445,75.2592,-34.1291,48.9836,-36.909,-46.3349,-59.8111,-15.4598,-51.0863,-54.9498,3.7163,49.2725,-8.7578,-10.2624,-36.2906,-1.6789,-12.4818,13.5065,3.647,-50.7936,1.7308,3.7342,-54.0421,-58.9299,-43.1973,-42.3949,-88.9466,-69.6194,-38.9536,-60.6119
CBA,15,-195.4505,-500.3474,74.8286,-33.8666,48.8086,-36.6485,-46.2481,-59.0298,-14.6825,-49.6018,-55.6334,3.0249,50.0464,-8.9295,-9.3853,-34.617,-1.5021,-11.9617,12.2944,4.3416,-50.2726,3.7211,4.1684,-52.8038,-58.4084,-42.4071,-41.6162,-88.3368,-69.4468,-38.1693,-58.3444
CBA,16,-197.3548,-501.303,74.4842,-34.2166,48.8961,-36.8222,-46.3349,-58.509,-13.9052,-48.8158,-56.6589,1.7285,50.6484,-8.8436,-8.5082,-34.1766,-1.4138,-11.7017,10.3896,4.5153,-49.8385,4.2404,4.5158,-52.1847,-58.1476,-41.9681,-40.2319,-87.3785,-68.7567,-37.1235,-58.5188
CBA,17,-199.1725,-501.911,74.4842,-34.7417,49.246,-37.2564,-46.5084,-58.8562,-13.387,-49.6018,-57.6844,0.7778,50.9923,-8.3285,-7.8065,-35.4098,-1.7672,-11.615,8.0519,4.4285,-49.8385,2.5096,4.6895,-52.6269,-58.3215,-42.0559,-38.9341,-86.3331,-67.4626,-36.0778,-61.1351
CBA,18,-200.4709,-501.6504,74.7425,-34.8292,49.6834,-37.8643,-46.5084,-59.8979,-13.4734,-51.6103,-58.1117,1.3828,50.8203,-7.2123,-7.631,-38.0523,-2.209,-11.9617,5.4545,4.168,-50.2726,-0.7788,4.6026,-54.0421,-58.843,-42.8461,-38.0689,-85.9846,-66.2549,-35.7292,-65.6701
CBA,19,-201.5961,-500.9555,75.4314,-34.8292,50.2082,-38.4722,-46.6819,-61.3737,-14.0779,-54.1428,-58.1972,3.3706,50.0464,-5.5809,-7.8942,-41.2233,-2.3857,-12.5685,3.29,4.0811,-50.9672,-4.3269,4.0816,-55.988,-59.7121,-44.0753,-38.0689,-86.3331,-65.5647,-36.1649,-70.8156
CBA,0,-595.2669,-1182.9395,-67.8538,-36.1418,-77.8489,25.7929,47.9835,108.9448,108.1324,89.5976,-308.5048,-304.5598,-7.8251,103.8912,80.8715,171.4115,-96.1369,31.1178,30.2165,195.4604,130.9346,175.4993,67.476,115.4254,69.7076,130.1187,93.3552,101.6657,158.4768,70.7613,161.1665
CBA,1,-594.5745,-1180.3335,-67.7677,-35.0917,-78.3737,26.1403,46.1613,109.292,102.5185,90.2962,-308.8466,-302.6584,-9.287,104.3205,76.4859,174.6706,-95.7834,30.7711,27.013,197.1102,125.3777,178.182,64.4366,115.8677,69.0123,129.1529,97.2486,91.7343,160.8924,64.8355,167.0969
CBA,2,-595.0938,-1178.9437,-68.1121,-34.7417,-78.8111,26.7482,46.0746,110.6809,105.2823,94.5752,-310.0431,-301.1892,-10.5768,106.2094,74.5562,178.4582,-95.6951,31.5512,21.8182,199.7152,125.3777,182.5955,65.2181,118.1673,70.7506,133.7185,102.0938,99.2264,158.7356,64.8355,172.504
CBA,3,-597.1712,-1179.4648,-69.4038,-35.0917,-79.3359,27.3561,47.8099,113.0248,115.56,102.0854,-312.3505,-300.6707,-12.0387,108.8711,75.0825,182.51,-96.2252,33.4582,14.8052,202.8412,130.1532,188.5666,69.4734,122.3244,74.7488,143.0252,103.9972,122.5738,151.8341,70.3256,175.9053
CBA,4,-600.2874,-1181.0284,-71.2121,-35.4418,-79.6858,27.964,51.4543,115.629,131.9699,110.4688,-315.5124,-300.8435,-14.1024,110.76,78.7664,186.1215,-97.3739,36.0585,8.0519,205.533,139.7909,194.4512,76.8549,127.0122,80.0508,154.6147,100.3634,158.7274,142.1719,83.833,175.382
CBA,5,-603.317,-1182.592,-72.8481,-35.5293,-79.8607,28.2245,55.3589,117.1916,148.2934,115.7084,-318.8453,-301.1028,-17.0261,111.5328,84.0292,187.8832,-98.4342,38.2255,3.4632,206.9223,151.5125,197.3069,84.2365,130.1079,84.2228,162.9557,90.6731,194.4454,132.9411,101.7847,168.6667
CBA,6,-604.6153,-1182.8527,-73.6231,-35.0917,-79.8607,28.3982,57.181,116.8443,155.721,113.9619,-320.9818,-300.4978,-19.9498,111.7904,87.8886,186.8262,-98.3459,38.8323,2.684,206.9223,159.1533,194.7108,87.7102,129.2234,84.7443,162.4289,78.8199,211.259,126.5572,114.2464,155.585
CBA,7,-603.7497,-1181.376,-73.2787,-34.0416,-79.8607,28.4851,55.9663,114.1533,150.1935,104.7925,-321.0672,-299.115,-21.5836,111.5328,87.9763,182.51,-97.3739,37.5321,5.5411,205.0988,158.5455,186.4031,85.2786,124.005,81.1807,152.4198,71.7252,202.4602,126.0395,115.4664,140.0614
CBA,8,-601.2395,-1179.3781,-72.3315,-32.5539,-79.9482,28.0509,52.5823,109.9865,133.9563,92.3921,-319.4435,-297.9051,-21.4116,110.4166,84.0292,175.5514,-96.3136,35.1051,10.6494,200.9308,149.255,175.5859,77.7234,116.5753,75.0965,137.8451,74.0612,172.0563,133.9763,105.7062,129.16
CBA,9,-598.21,-1177.8145,-70.9537,-31.0662,-79.8607,27.6166,48.2438,106.1669,113.3145,81.5635,-316.367,-297.2137,-19.1759,108.8711,77.8016,168.1523,-95.43,32.5914,16.5368,195.4604,134.8418,165.9801,68.0839,109.5878,68.7515,124.2362,83.838,131.1113,147.003,88.5388,124.9738
CBA,10,-595.9594,-1177.4669,-69.6621,-30.3661,-79.6858,27.2693,44.0789,103.6494,95.35,75.3633,-313.205,-297.473,-16.2522,107.4115,71.3108,162.9554,-94.6347,30.6844,21.4719,190.5109,120.5154,159.9225,59.4866,105.077,64.1449,115.105,93.9609,93.0411,159.9434,69.5413,126.1948
CBA,11,-594.9207,-1178.2488,-68.9732,-30.5412,-79.4234,27.0087,41.4758,102.5209,84.1222,73.966,-310.6413,-298.6829,-13.9305,106.5529,66.3988,160.5771,-94.458,29.9043,24.329,187.2113,110.0962,157.8456,53.9287,103.3964,62.0589,111.5052,99.3251,65.9477,169.3468,53.8553,131.2531
CBA,12,-594.8341,-1179.5518,-68.8871,-30.9787,-79.161,26.4876,40.6081,102.4341,79.4583,75.6253,-309.1885,-300.4114,-12.8986,105.3508,63.4166,160.0486,-94.8998,29.991,24.6753,185.1273,104.3656,158.7109,51.6708,103.6618,61.7981,111.8564,99.1521,50.7893,174.0053,43.3979,139.2765
CBA,13,-594.9207,-1180.4204,-68.8871,-31.2412,-78.8986,25.9666,40.6081,102.6945,78.4219,78.5071,-308.4194,-302.1399,-13.2425,103.6336,61.6623,160.489,-95.0765,30.251,22.8571,183.5643,101.3267,161.134,51.0629,104.8116,62.4066,113.7002,96.47,44.6911,176.5071,37.5593,149.7419
CBA,14,-594.5745,-1180.3335,-68.5427,-31.6788,-78.8986,25.4455,40.3478,102.6077,78.0764,80.1663,-308.0775,-302.9177,-14.3604,101.7447,60.2589,160.2248,-94.5464,30.1643,19.9134,181.654,99.2429,162.259,50.5419,105.1654,62.4066,114.666,93.5283,43.6457,179.354,34.7706,159.5967
CBA,15,-594.1417,-1179.7255,-68.026,-32.1164,-78.986,24.7508,40.0007,101.6528,77.4718,79.7296,-307.9066,-302.6584,-15.3063,99.684,59.6449,159.0797,-93.8395,29.5576,17.2294,179.4832,97.68,160.8744,50.1077,104.1925,61.7981,114.4026,92.144,45.5623,183.7537,34.8578,166.6609
CBA,16,-593.882,-1179.1174,-67.6816,-32.1164,-78.986,24.056,40.0007,100.6111,77.6446,78.8564,-307.9921,-302.0535,-15.3063,97.4517,60.7852,158.4631,-93.3977,29.1242,16.3636,178.3544,97.0722,158.7109,50.2814,102.9542,61.1897,114.227,93.0092,49.6568,189.6201,37.385,171.1086
CBA,17,-593.9686,-1178.8568,-67.5094,-32.1164,-78.8986,23.4481,40.6949,99.9167,79.2856,79.293,-308.5048,-301.8806,-14.3604,94.8759,64.1183,158.5512,-93.1326,29.0375,18.1818,178.2675,98.1141,157.2398,51.584,102.2466,61.3636,115.4562,96.2104,55.8421,195.6589,41.3065,173.3761
CBA,18,-594.9207,-1179.4648,-67.5955,-32.9915,-78.6362,22.8402,41.9964,99.743,83.604,81.2142,-309.8722,-302.6584,-12.6406,92.3,69.5565,157.8465,-93.0442,29.3842,22.7706,178.7885,101.2399,156.5475,54.1024,102.4235,62.4935,118.5292,101.3151,65.5992,199.8861,46.0994,173.5506
CBA,19,-596.4788,-1180.7678,-68.026,-34.3041,-78.1988,22.2323,43.9921,99.4826,90.0815,83.572,-311.7523,-303.9548,-10.4048,89.8959,75.6964,155.2921,-93.3093,29.991,29.0909,179.049,106.189,155.0763,57.5761,102.7773,64.2318,122.568,106.2467,78.9281,202.3017,51.5895,171.1958
CBA,0,-133.1279,-103.7179,-29.7937,31.3288,-49.5959,-55.7543,-57.181,18.4034,-12.1778,10.8286,-58.9663,15.9885,40.1575,11.076,8.5959,-37.4357,6.8038,21.3231,8.1385,-52.4469,-15.021,-64.7305,-4.7763,-73.5892,0.3477,-23.4424,-26.4752,-49.5696,-35.543,-79.7372,12.8201
CBA,1,-134.3397,-105.1077,-31.1714,30.7162,-51.2578,-56.8833,-57.3546,17.7089,-13.1279,9.9553,-60.6755,15.3836,39.3836,9.7881,7.8065,-38.1404,5.9202,20.543,6.3203,-53.8363,-15.1947,-65.9421,-5.3842,-74.1199,-0.3477,-24.4082,-25.783,-49.3083,-35.8881,-79.1272,13.1689
CBA,2,-135.0322,-106.237,-31.5159,30.1036,-51.7826,-57.8386,-57.2678,17.2749,-12.9552,9.082,-60.8464,15.8157,39.0397,8.3285,8.0696,-38.6689,5.6551,20.0229,6.3203,-55.1388,-14.5869,-67.2401,-5.2973,-74.7391,-0.6084,-24.8472,-25.956,-47.6531,-37.2684,-78.2557,12.9073
CBA,3,-134.686,-106.9319,-30.052,30.1036,-50.6455,-57.7518,-56.6604,17.6221,-11.5733,9.082,-59.7354,17.717,39.3836,7.2981,9.2976,-38.3165,6.1853,20.1096,8.0519,-54.7914,-13.2845,-67.4132,-4.3421,-74.7391,0,-24.2326,-26.1291,-45.1267,-37.8722,-77.0357,13.6922
CBA,4,-134.2532,-108.6692,-28.0715,30.8037,-48.6337,-56.7965,-55.706,18.3166,-9.9323,9.606,-58.6245,18.7541,39.4696,6.0102,10.6133,-37.4357,6.2736,20.4563,10.303,-52.3601,-12.0689,-66.7209,-3.0395,-74.2084,0.9561,-22.9156,-26.2156,-42.8616,-37.1821,-76.3385,15.7853
CBA,5,-133.9935,-111.7095,-26.3493,32.0288,-46.7968,-55.0596,-55.0118,18.8375,-8.6368,10.5666,-58.1972,17.8034,38.7817,4.5506,11.4904,-36.6429,6.1853,20.7163,12.381,-49.321,-11.4611,-65.4228,-2.171,-73.5008,1.7383,-21.6865,-26.1291,-41.5549,-35.3704,-76.6,18.4016
CBA,6,-133.8204,-115.1842,-25.5743,33.1665,-45.9221,-52.8016,-55.0118,19.1847,-8.2913,11.1779,-57.599,15.3836,37.4058,2.7475,11.6658,-36.2025,6.1853,20.4563,13.5931,-48.6263,-11.5479,-64.644,-1.9974,-72.8817,2.086,-21.2475,-26.8212,-41.642,-34.4215,-78.0814,19.2737
CBA,7,-133.8204,-118.2245,-26.2632,34.3916,-46.4469,-50.0226,-55.5324,19.2715,-9.0686,10.8286,-56.6589,13.1365,35.6,1.1162,11.1396,-36.4668,5.9202,20.0229,13.9394,-51.2313,-12.2426,-64.644,-2.5184,-72.8817,1.7383,-21.7743,-28.3786,-43.2101,-35.543,-80.3472,17.0062
CBA,8,-133.7338,-119.8749,-28.1576,36.1418,-47.5841,-46.983,-56.1398,19.4451,-10.4505,10.0426,-56.2316,12.618,34.0522,0.8586,10.5256,-36.9953,5.3017,19.5895,13.9394,-55.2256,-13.4581,-65.2497,-3.3868,-73.0585,1.043,-22.6522,-30.2821,-45.5623,-38.0448,-82.8744,12.4712
CBA,9,-133.7338,-119.8749,-30.1381,37.2795,-48.7212,-45.0724,-56.7472,19.3583,-12.1778,8.5581,-56.2316,14.5193,32.8483,1.8031,9.8239,-38.1404,4.5064,18.8961,13.5065,-58.7857,-14.8474,-66.6344,-4.5158,-73.6777,0,-24.2326,-32.8777,-49.0469,-41.6681,-85.663,6.1048
CBA,10,-133.9935,-118.6588,-31.602,36.9294,-49.1585,-45.333,-57.4413,18.7507,-13.9916,6.8988,-56.6589,17.8034,32.6764,3.3486,9.2976,-39.2855,3.9762,18.1159,13.0736,-60.5224,-16.1498,-68.1055,-5.5579,-74.5622,-1.1299,-25.9886,-35.6463,-52.7059,-45.2051,-87.9287,0.5233
CBA,11,-134.08,-116.4871,-32.1186,35.7043,-48.2838,-47.0699,-57.181,18.4902,-14.0779,6.4622,-57.1717,21.2604,34.4822,6.182,10.2624,-39.1974,3.6228,17.8559,13.5931,-59.4804,-15.8893,-68.192,-5.2105,-74.6506,-1.2168,-26.1642,-36.3385,-53.9255,-46.5855,-87.0573,-1.3954
CBA,12,-133.3876,-113.7074,-31.8603,34.7417,-46.4469,-48.8068,-55.6192,19.3583,-12.1778,8.2961,-57.0862,23.9396,37.5778,10.7326,12.6307,-36.9953,3.181,18.636,14.8918,-56.0071,-13.7186,-66.1151,-3.1263,-73.3239,-0.0869,-24.1448,-34.1755,-51.9218,-44.6875,-83.3972,1.4826
CBA,13,-132.2623,-111.1883,-31.2575,33.8666,-44.5226,-50.2831,-53.7103,20.9209,-9.3277,11.5272,-56.2316,25.4952,40.7595,15.5408,15.5252,-33.8243,2.9159,19.9362,16.0173,-51.5786,-10.6797,-62.394,-0.4342,-70.9358,1.7383,-21.0719,-30.6281,-48.35,-40.6329,-78.6914,7.413
CBA,14,-131.137,-109.7985,-30.5687,32.7289,-42.8606,-51.2384,-51.8881,22.657,-6.4776,15.1949,-55.1207,25.9273,43.3392,19.4045,18.1566,-31.0056,3.0043,21.1497,16.7965,-47.8448,-7.6407,-58.2402,2.0842,-68.4592,3.7374,-18.0867,-26.9943,-44.4297,-37.0958,-74.1599,13.3433
CBA,15,-130.9639,-110.0591,-30.1381,31.0662,-42.0734,-52.1069,-50.6733,23.8724,-4.4911,18.164,-54.3515,25.4952,43.9411,20.8641,19.56,-29.332,2.7392,22.0165,16.3636,-45.674,-5.5569,-54.6056,3.821,-66.4249,5.215,-16.2429,-24.7448,-41.8162,-36.0606,-71.2842,17.9655
CBA,16,-131.8295,-112.4044,-30.6548,29.5786,-42.1609,-52.6279,-50.0659,24.5668,-3.3683,20.4345,-54.0952,25.0631,42.6513,19.9196,19.1215,-28.363,1.6789,22.5366,14.3723,-44.8057,-4.6886,-51.4036,4.6026,-65.0097,6.1711,-15.3649,-24.0526,-40.8579,-37.1821,-70.6741,21.8028
CBA,17,-133.7338,-115.7922,-32.2047,28.5284,-43.2105,-52.4542,-50.0659,24.8273,-3.1956,21.8318,-56.3171,24.3717,40.2435,17.5155,17.4549,-27.7465,0.1767,22.6233,9.9567,-44.9793,-4.8623,-49.0671,4.5158,-64.1252,6.5188,-15.1893,-24.9178,-41.5549,-39.2526,-72.3299,24.6808
CBA,18,-136.244,-119.4406,-34.8741,26.8657,-45.1349,-52.1937,-50.7601,24.1328,-3.9729,21.4825,-61.3591,22.6432,37.5778,14.4246,14.8235,-28.363,-1.2371,22.0165,2.3377,-46.4555,-5.9042,-48.9806,3.4737,-64.3906,5.9104,-16.4185,-27.0808,-43.6457,-41.8406,-75.7285,24.768
CBA,19,-138.2349,-121.6991,-37.6296,25.1155,-46.9718,-52.1937,-51.8013,22.5702,-5.4412,18.7753,-65.803,20.4826,36.116,11.5912,12.1921,-30.7413,-2.5625,21.3231,-5.974,-49.1473,-7.4671,-51.8363,1.9974,-66.1596,4.6935,-18.7891,-29.8495,-45.9978,-43.566,-79.5629,21.7156
CBA,0,59.3795,22.3245,-23.7661,44.7179,26.3287,-2.0843,19.5231,-43.3175,16.2371,7.3355,-8.8022,-49.5212,21.9276,22.5813,0,-12.0675,-28.7174,19.5028,-21.8182,8.9438,53.2247,20.7692,4.7763,-103.3964,-13.1245,-20.1939,-14.968,36.1536,36.6645,48.4523,-21.454
CBA,1,59.1199,21.8033,-24.0244,44.6304,26.2412,-1.5632,20.0437,-43.2307,18.4827,8.3834,-8.5458,-48.9162,22.3575,17.6873,1.5788,-13.0364,-28.5406,19.5895,-21.3853,5.8178,54.614,21.0288,5.8184,-103.1311,-12.603,-18.5257,-13.1511,41.642,36.3194,49.2366,-21.7156
CBA,2,59.0333,22.3245,-24.1105,44.8929,26.0663,-1.3027,20.8247,-43.4911,21.0737,9.606,-8.3749,-47.6199,22.5295,14.3387,3.684,-14.0934,-28.7174,19.5028,-19.3939,2.9523,56.5242,21.1153,7.2079,-102.7773,-11.9946,-16.6819,-12.5454,47.3917,34.6803,49.9338,-23.0238
CBA,3,58.9467,23.2801,-23.8522,45.4179,25.8039,-1.3895,21.432,-43.7515,23.0602,10.3919,-8.6313,-46.5828,22.0995,13.7377,5.5259,-14.9743,-28.7174,19.2428,-16.2771,0.9552,58.1739,20.7692,8.25,-102.7773,-11.8207,-15.5405,-14.4489,50.7022,32.0922,50.7181,-24.6808
CBA,4,58.6005,23.2801,-23.4216,46.2055,25.7164,-1.8237,21.5188,-44.1856,23.5784,10.0426,-8.9731,-47.9656,21.9276,15.7125,6.3153,-15.4147,-28.2755,18.8961,-12.4675,0.1737,59.129,19.9038,8.6842,-103.308,-12.0815,-16.0673,-18.5153,50.7893,29.159,51.6767,-25.7273
CBA,5,57.7349,22.1508,-23.4216,47.0807,25.7164,-2.4317,21.2585,-44.88,22.1965,7.6848,-9.4859,-50.2126,22.5295,18.9752,6.1399,-14.9743,-28.0988,18.2893,-8.8312,0.4342,59.0421,18.5192,8.4236,-104.3694,-13.0376,-18.7013,-22.6683,47.9144,26.916,53.071,-25.4657
CBA,6,56.35,19.5448,-23.9383,48.3058,25.5414,-3.2133,20.7379,-45.7481,19.3464,4.4537,-9.9986,-52.8918,23.9913,21.0358,4.9119,-13.3888,-28.2755,17.6825,-6.7532,2.4313,57.9134,17.048,7.4684,-105.7845,-14.3413,-22.4766,-24.8313,42.2518,26.2259,53.8553,-23.4598
CBA,7,54.186,15.7227,-25.0577,49.2684,24.9291,-3.5606,19.8702,-46.5294,15.3735,1.7465,-10.4259,-57.2994,25.2812,20.6924,3.2454,-10.5701,-28.629,16.9024,-7.7056,6.5993,55.8295,16.0096,5.7316,-107.0228,-15.8189,-26.4276,-25.5234,34.1499,26.4847,53.071,-20.5819
CBA,8,51.5027,11.7269,-26.6938,49.3559,23.792,-2.9527,18.4819,-46.9634,10.7096,-0.0873,-11.2805,-60.8428,26.0551,18.7176,1.4911,-6.8706,-28.8941,16.0356,-11.6017,11.8961,52.7906,15.3172,3.3,-107.9958,-17.2965,-30.1152,-26.5617,25.0026,25.5357,50.3695,-18.576
CBA,9,48.8193,8.2523,-28.5882,48.6558,22.48,-1.4764,17.0936,-47.0502,6.3912,-1.2226,-12.4769,-62.2256,26.3131,17.859,-0.0877,-3.5234,-29.6893,15.3422,-16.4502,16.1509,49.4044,15.5769,0.8684,-108.438,-18.3395,-32.7492,-28.119,17.2492,22.2575,46.6223,-18.14
CBA,10,47.0016,5.9937,-30.1381,47.3432,21.5178,-0.4342,16.4862,-46.9634,4.0593,-1.1353,-13.7588,-61.7071,26.571,18.5459,-0.9648,-2.4664,-31.0147,15.0822,-19.8268,16.9324,46.8864,17.048,-0.6079,-108.2611,-18.6003,-33.4516,-28.9843,13.5032,18.2891,44.1822,-19.2737
CBA,11,46.7419,5.7331,-30.5687,45.5055,21.5178,-0.6948,16.6597,-47.0502,4.0593,0,-14.5279,-60.3243,26.915,20.4348,-0.3509,-5.0208,-31.8983,15.3422,-20.9524,14.1537,46.105,18.9519,-0.8684,-107.7304,-18.1657,-32.398,-28.8112,14.4614,15.0971,44.0079,-22.2389
CBA,12,48.1269,7.9048,-29.7076,44.1053,22.3925,-1.8237,17.2671,-47.5711,5.7003,1.3972,-14.5279,-58.3365,27.5169,22.5813,1.228,-10.3058,-31.6333,15.8623,-20.7792,9.3779,46.9732,20.0768,-0.0868,-107.4651,-17.4704,-30.3786,-28.0325,18.6431,13.1129,45.4894,-26.8611
CBA,13,50.2043,11.64,-28.2437,43.9303,23.7046,-3.0396,17.9613,-48.2656,8.3777,2.8818,-14.0152,-55.0524,28.0329,24.0409,2.9822,-16.0313,-30.7497,16.2957,-21.2121,4.9495,48.8834,19.9903,1.3026,-107.5535,-16.6012,-27.8324,-26.9078,24.567,13.0267,48.4523,-31.3089
CBA,14,52.2817,15.9833,-26.9521,45.8555,24.5793,-3.6475,18.6554,-49.0468,11.2278,4.4537,-13.6733,-51.3361,27.9469,23.1823,3.7717,-20.0832,-29.866,16.6424,-22.9437,1.9103,50.7936,19.2115,2.5184,-107.8189,-15.8189,-25.1984,-26.1291,30.2296,14.1482,51.7638,-34.3613
CBA,15,53.8398,19.8054,-26.3493,49.7935,24.4043,-2.5185,18.3083,-49.8281,12.6961,5.5889,-13.8443,-50.299,26.3991,19.9196,2.3683,-21.6687,-28.8941,16.5557,-26.5801,0.6947,51.3146,17.9999,2.4316,-108.438,-15.8189,-23.7936,-26.9078,32.8432,14.9246,53.071,-35.8439
CBA,16,54.4457,22.0639,-26.5215,53.9065,23.6171,0,16.92,-50.4358,12.2642,6.2002,-13.9297,-54.1017,24.0773,14.8539,-0.614,-20.7878,-27.9221,16.0356,-30.8225,0.4342,50.2726,16.8749,1.2158,-109.1456,-16.5143,-23.7936,-28.7247,32.2333,15.701,52.1124,-35.2334
CBA,17,54.3591,22.9326,-26.9521,57.1444,22.9173,2.779,15.1846,-51.2171,10.6232,5.4143,-13.6733,-61.1021,21.9276,7.8133,-3.5962,-18.6738,-27.3919,15.3422,-33.9394,0.4342,48.2756,15.4903,-0.4342,-110.2954,-17.6442,-25.4618,-30.0225,29.6198,17.4264,50.0209,-32.7915
CBA,18,53.6666,22.672,-27.2965,59.2446,22.6549,5.037,13.7096,-52.3456,8.2913,2.6198,-13.5879,-66.0283,20.2937,-0.7727,-5.8768,-16.5598,-27.3919,14.5621,-34.9784,0.521,46.2786,13.3269,-2.0842,-111.9759,-19.1218,-28.447,-30.0225,26.3094,19.2381,47.8423,-29.9135
CBA,19,52.1086,19.7186,-27.7271,59.2446,22.7424,7.1213,12.7551,-52.9532,6.2185,-0.7859,-14.357,-68.8803,19.0039,-7.2981,-7.0171,-14.5339,-27.657,14.1287,-33.9394,1.8235,44.8894,11.423,-3.3868,-113.3911,-20.3386,-31.52,-28.2921,23.4345,21.3085,46.5351,-27.1227
CBA,1,8.2816,70.0111,59.097,31.9294,23.4141,20.2345,-6.0621,58.8572,27.0963,-2.5236,12.7686,30.2388,-17.125,-73.5143,10.8361,-24.5752,-32.7964,-13.0429,-72.0275,0.6071,41.841,-4.9163,-25.8116,-30.8479,-3.8138,-21.0436,-34.7822,-35.5557,42.3466,-42.186,-49.7236
CBA,2,7.1601,69.406,59.2685,32.1039,23.5882,19.8886,-6.0621,58.7705,28.0425,-2.0015,12.3429,29.5496,-17.8957,-71.8047,9.6127,-26.5061,-32.1809,-12.7837,-74.3565,0.4336,40.9765,-4.8301,-26.0714,-31.0242,-3.207,-20.3451,-34.4369,-34.1682,41.4859,-34.8946,-46.8549
CBA,3,6.6425,69.406,59.7832,32.8018,23.6752,19.9751,-6.1487,58.8572,29.1608,-1.5664,12.0876,29.0327,-19.0088,-70.7789,7.6902,-26.945,-31.3017,-12.611,-77.0306,1.2142,39.9391,-4.4851,-26.5045,-30.936,-2.5136,-19.5592,-33.8328,-33.2142,40.6252,-28.0372,-43.8993
CBA,4,6.0386,68.9739,60.0405,32.9762,23.24,19.9751,-6.4085,58.9439,29.849,-1.6534,11.662,28.3435,-20.2932,-70.0096,5.4181,-26.5939,-31.0379,-12.6974,-79.5321,2.7753,39.0747,-4.4851,-26.9376,-30.8479,-2.0802,-19.2099,-33.4012,-32.8674,39.076,-22.8291,-43.03
CBA,5,5.176,68.2824,60.0405,32.889,22.4567,19.7157,-6.8415,58.7705,30.021,-2.4366,10.981,27.7404,-21.5776,-70.0951,3.4955,-26.0673,-31.3017,-12.9565,-81.5161,4.4231,38.3831,-5.0026,-27.3707,-30.936,-1.9069,-19.2973,-33.4012,-33.301,37.0963,-20.9194,-45.551
CBA,6,4.7447,68.1095,60.3836,32.9762,21.8474,19.8022,-7.0147,58.7705,30.2791,-2.8717,10.3851,27.8266,-22.3482,-71.7192,2.7964,-25.014,-31.1258,-12.9565,-82.2062,6.3311,38.3831,-5.1751,-27.1975,-30.4953,-1.3868,-18.948,-32.7108,-33.5611,36.4938,-22.6555,-49.0281
CBA,7,4.6584,67.8502,60.984,33.4124,21.7603,20.321,-6.4951,59.464,31.1393,-1.8274,9.8744,28.602,-22.3482,-74.4546,3.9325,-23.0831,-30.95,-12.2655,-81.6024,8.4125,39.6798,-4.0538,-26.0714,-29.1733,0,-17.4636,-30.7257,-32.8674,38.5595,-27.3428,-50.6798
CBA,8,4.9172,67.2452,61.2413,33.7614,22.0214,21.0992,-5.1095,60.6775,32.6016,0.7832,9.5339,29.9804,-21.9201,-77.361,6.5541,-20.6256,-31.0379,-11.1426,-80.0497,10.3205,42.0139,-1.6388,-24.1659,-27.1461,1.9069,-15.106,-27.7049,-31.3931,43.4655,-32.4642,-48.6804
CBA,9,5.4348,66.3809,60.984,33.8486,22.1085,21.5316,-3.8104,61.8911,33.9779,3.9159,9.1082,31.0142,-21.4063,-79.7545,9.3505,-18.4314,-31.3017,-10.1061,-78.7558,11.1878,44.348,1.1213,-22.4336,-25.3834,3.6404,-12.8357,-24.943,-30.179,49.4905,-36.1099,-43.8124
CBA,10,6.2974,66.1216,60.8124,34.1103,22.0214,21.5316,-2.9444,62.7579,34.9241,7.0486,9.0231,31.7895,-20.8069,-80.6093,11.5352,-16.7638,-31.1258,-9.3287,-77.7207,11.1011,45.9905,3.7088,-21.1343,-24.0613,4.8539,-11.0021,-22.7853,-29.6587,55.7736,-37.4119,-36.858
CBA,11,7.3326,66.4673,60.7267,34.4593,22.3696,21.7045,-1.9918,63.8847,36.3865,10.7035,9.7892,32.2203,-19.5226,-78.3868,13.5452,-14.6574,-30.7741,-8.2922,-76.513,10.8409,47.4601,6.9864,-19.7485,-22.4749,6.414,-8.8191,-20.3687,-28.7047,62.8314,-36.1967,-27.2958
CBA,12,7.6777,66.8995,60.4693,34.2848,22.7178,21.791,-0.866,65.2717,38.0209,14.4453,10.981,31.8757,-17.9813,-72.916,15.2929,-11.9365,-31.0379,-7.1693,-75.2191,10.6675,48.9298,10.5227,-18.3626,-20.4477,8.1476,-6.3742,-17.6932,-27.2305,70.4056,-34.1134,-16.5166
CBA,13,7.4189,67.6774,60.0405,33.6741,22.7178,21.7045,-0.0866,66.3985,39.3972,17.404,11.7471,30.8419,-16.7825,-65.3936,16.2542,-9.2157,-31.7413,-6.3055,-74.529,10.5807,50.0536,13.1102,-17.3232,-18.5969,9.361,-4.3659,-15.5355,-25.7562,76.7748,-33.0718,-8.0844
CBA,14,6.9013,68.4553,59.3543,32.889,22.1955,21.4451,0.0866,66.8319,39.7413,18.6223,11.7471,29.0327,-16.3544,-58.555,16.2542,-7.7236,-32.4447,-6.1327,-74.7015,10.494,50.3994,13.8865,-17.15,-17.7155,9.7944,-3.7547,-15.0176,-25.496,80.2176,-34.287,-5.3027
CBA,15,6.3837,68.8874,58.4966,32.2783,21.8474,21.4451,0.1732,67.0053,39.6552,18.5353,11.4917,27.5681,-15.6694,-54.2809,16.2542,-7.7236,-32.9723,-6.1327,-74.9603,10.8409,50.6587,13.4552,-17.0634,-17.4511,9.8811,-3.7547,-15.5355,-26.0164,81.1644,-36.2835,-7.8236
CBA,16,5.9524,68.801,57.8104,31.9294,22.1085,21.964,0.6928,67.0053,39.4832,17.5781,11.0661,27.0512,-14.1282,-52.9132,16.9533,-9.3912,-33.6757,-5.8736,-74.6153,12.0551,51.2639,12.1615,-16.7169,-17.2748,10.0544,-4.3659,-17.089,-26.8836,79.6151,-38.0195,-14.3433
CBA,17,5.176,67.5045,56.9527,31.6677,22.2826,22.7422,1.2124,66.6586,38.8811,15.4026,10.4702,27.0512,-12.4157,-54.6229,17.9146,-12.2876,-34.467,-5.7872,-74.0977,13.4427,51.7826,9.7464,-16.4571,-17.7155,9.9678,-5.763,-19.6782,-28.0977,75.6559,-39.3216,-23.1232
CBA,18,4.2271,65.4301,56.0092,31.4059,22.1955,23.261,1.3856,65.9651,37.8488,12.5309,9.7892,27.0512,-11.1313,-58.726,18.7011,-14.7451,-34.9066,-5.8736,-73.6664,14.6569,51.9555,6.9864,-16.5437,-18.5969,9.5344,-7.7713,-22.958,-29.4852,70.2334,-40.6236,-31.99
CBA,19,3.0193,62.4914,54.8084,31.057,21.8474,23.434,1.2124,65.3583,36.6445,9.6592,9.1082,26.9651,-10.5319,-63.9404,19.138,-15.7983,-35.5221,-5.96,-73.3214,15.6109,51.6961,4.7438,-16.8035,-19.302,8.841,-9.5177,-25.6335,-30.6126,64.2085,-41.752,-39.5528
CBA,0,2.3292,59.5526,53.6933,31.2315,22.0214,23.8663,1.299,65.6184,36.3865,8.0058,9.1934,27.5681,-10.0182,-68.129,19.8371,-15.0084,-36.3134,-5.6145,-72.3725,16.9985,51.7826,3.7088,-16.6303,-19.3901,8.841,-10.0416,-26.4103,-30.3524,59.1303,-41.4048,-44.0732
CBA,1,43.392,70.0975,25.8174,24.9503,-33.9461,35.9725,-14.982,-1.907,-11.6987,5.5693,-34.39,-26.8789,-26.8863,-3.7612,-18.2641,57.4006,42.3803,53.0353,-26.9133,-30.4413,36.827,-18.6303,-1.6457,8.9018,0.0867,-1.4844,66.2846,13.7887,-7.7463,-48.0018,57.7211
CBA,2,43.5645,68.7146,24.8739,25.5609,-34.3813,37.356,-15.2418,-1.907,-12.5589,4.7861,-34.5603,-28.8604,-27.4001,0.7693,-18.7885,56.7863,41.6769,52.6034,-27.4308,-28.7935,36.1354,-20.0104,-2.4253,8.0204,-0.6067,-2.6195,65.0763,12.5746,-9.4677,-49.1302,53.5485
CBA,3,44.2547,67.7638,24.3593,25.4737,-34.8165,35.6266,-15.6748,-3.2072,-13.5912,2.5236,-34.6454,-30.6696,-27.9995,4.5305,-19.138,54.7676,41.589,51.5669,-27.9484,-28.1864,35.4438,-23.0292,-3.2914,6.3458,-1.7335,-4.4532,63.6091,11.5339,-13.513,-49.9115,44.8555
CBA,4,45.2036,66.9859,24.1877,25.0375,-34.9906,32.1677,-15.848,-4.9409,-14.1933,-0.174,-34.3049,-31.4449,-28.5988,7.095,-19.3128,51.959,41.5011,50.7031,-28.1209,-28.5333,35.0116,-26.5655,-3.8111,4.495,-2.7736,-6.1996,62.5734,11.1003,-17.7305,-49.9983,34.7717
CBA,5,45.98,65.0844,24.2735,24.5141,-34.8165,28.6223,-15.6748,-6.4145,-14.4514,-2.1755,-33.4536,-32.5649,-29.1126,8.0353,-19.138,49.5015,41.0614,50.1848,-28.0346,-29.9209,35.0116,-29.153,-3.9843,3.0848,-3.3804,-7.1601,62.3144,11.5339,-20.5708,-49.3038,26.8612
CBA,6,46.6701,62.4049,24.6166,24.4268,-34.6424,26.8064,-15.5882,-7.1946,-14.6234,-3.3068,-32.6024,-33.8571,-29.6263,7.3514,-19.3128,47.8339,40.7097,50.0985,-28.2934,-32.1758,34.9251,-30.6193,-4.071,2.2916,-3.9004,-7.5967,62.3144,11.9675,-21.8619,-48.5226,22.8624
CBA,7,47.619,60.6763,25.3885,25.4737,-34.0331,27.1523,-15.5016,-7.0213,-14.6234,-3.3068,-32.0917,-33.8571,-29.9688,5.2999,-19.4002,47.5706,41.4132,50.6167,-28.6385,-34.1705,34.8387,-30.3605,-4.071,2.4678,-3.9871,-7.2474,62.746,12.5746,-21.6037,-47.6546,23.4709
CBA,8,48.2229,60.6763,26.0747,26.6078,-33.4239,29.2276,-15.415,-5.8944,-14.4514,-2.5236,-32.7727,-33.0818,-30.0545,1.6242,-19.4876,48.7116,42.3803,51.4805,-28.9835,-34.0838,34.7522,-28.9805,-4.071,3.4373,-3.8138,-6.6362,63.4364,13.2683,-20.6569,-46.8734,27.2958
CBA,9,47.7053,61.7999,25.9032,27.3057,-33.2498,32.1677,-15.5016,-4.4208,-14.7954,-1.8274,-34.5603,-33.4264,-30.0545,-5.5563,-19.9245,50.5547,42.4683,51.9988,-29.5873,-31.482,34.32,-27.5142,-4.2442,4.495,-3.9004,-6.4615,63.5228,13.4418,-20.6569,-46.613,31.9031
CBA,10,45.6349,63.0964,24.9597,27.1312,-33.772,35.1942,-16.281,-3.554,-16.1718,-2.3495,-37.114,-35.8386,-30.397,-16.6689,-21.0605,52.0468,41.8528,51.5669,-30.6225,-27.0589,33.0233,-27.1692,-5.2836,4.8475,-4.9405,-7.7713,62.3144,12.4879,-22.7226,-47.8282,35.3802
CBA,11,42.9607,64.4793,23.5873,26.695,-34.8165,38.1343,-17.6666,-3.4673,-18.4083,-4.0029,-39.6677,-38.337,-31.2532,-28.4654,-22.7209,52.5734,41.2373,50.3576,-32.1751,-22.6358,31.035,-28.118,-6.9293,4.3187,-6.8474,-9.9542,60.243,10.58,-26.0793,-49.9115,37.2057
CBA,12,40.3727,65.7758,22.215,25.5609,-36.0351,40.1231,-19.312,-4.4208,-20.9029,-6.4395,-41.966,-39.6292,-32.3663,-36.5862,-24.2939,51.2568,40.358,48.7164,-33.5553,-23.0695,28.7873,-30.188,-8.8348,2.6441,-9.1877,-12.4865,58.1716,8.3252,-29.5221,-52.2551,37.3796
CBA,13,38.7336,67.0723,21.1857,23.6417,-36.7314,40.642,-20.4379,-5.9811,-22.8813,-8.789,-42.9024,-39.1985,-33.0513,-38.2104,-25.2552,48.8871,39.215,47.248,-34.1591,-28.2731,27.1448,-32.6893,-10.3073,0.4407,-11.2679,-14.844,56.5318,6.4174,-32.0182,-54.4252,36.2495
CBA,14,38.6473,68.5417,21.3573,21.7224,-36.3833,39.1719,-20.6977,-7.5413,-23.9996,-10.2684,-41.6255,-37.9062,-32.6232,-33.9363,-25.1678,46.7806,38.6874,46.2115,-33.6416,-34.8644,26.3667,-34.5869,-10.9136,-1.4983,-12.8281,-16.3285,55.9276,5.3767,-32.7067,-55.9876,34.5109
CBA,15,40.3727,70.5297,22.9012,20.4139,-34.9906,36.3184,-19.9182,-8.4949,-23.7415,-10.4424,-38.7313,-36.1832,-31.082,-25.0462,-23.7696,45.7274,39.3029,46.0388,-31.9164,-39.7211,26.6261,-35.0181,-10.5672,-2.556,-13.3481,-16.4158,57.136,5.8103,-31.0714,-56.3349,33.1201
CBA,16,43.0469,72.7769,25.3028,20.3266,-32.5534,33.5512,-17.9264,-8.4949,-22.1071,-8.789,-35.4115,-33.4264,-28.6845,-12.7368,-21.3227,46.254,40.7097,47.0753,-28.8972,-40.4149,28.0957,-33.6381,-9.0081,-2.2034,-12.568,-14.7567,60.0704,8.0651,-27.0261,-54.7724,33.0331
CBA,17,45.4624,74.5056,27.6186,21.1118,-29.9422,31.6489,-15.6748,-7.8014,-20.0427,-6.4395,-32.7727,-29.8081,-26.3726,0.4274,-18.8758,47.395,41.9407,48.5437,-25.7056,-37.7264,30.084,-31.5681,-7.1891,-1.0576,-11.1812,-12.4865,63.3501,10.8402,-22.1201,-52.4287,33.7286
CBA,18,46.7564,75.8021,29.4198,22.4204,-27.9403,30.5247,-14.116,-7.368,-18.8384,-4.6121,-31.4107,-26.7928,-24.9169,10.3433,-17.3029,48.2727,42.9958,49.6666,-23.4628,-34.2573,31.5536,-29.843,-5.9765,-0.1763,-10.1411,-10.9147,65.5078,12.5746,-17.9026,-50.4323,34.2501
CBA,19,47.1014,76.6664,30.3633,23.5545,-27.0698,29.8329,-13.5964,-7.4547,-18.8384,-3.9159,-30.9851,-25.5867,-24.6601,14.8738,-17.1281,48.3605,43.963,49.753,-22.514,-32.0891,31.7265,-29.3255,-5.8033,0.0881,-9.9678,-10.5655,65.9394,12.748,-15.0623,-49.7379,34.2501
CBA,0,75.5694,119.451,14.2382,11.7772,-23.24,34.3295,-41.7417,13.8691,-31.5694,-64.917,10.981,99.4176,33.2226,-21.7979,-59.8609,-25.9795,22.3332,-45.175,1.7252,-59.9285,-23.9462,-21.1316,-62.7967,-66.2789,-45.1583,-94.2161,-69.3054,-38.3308,-90.546,-0.2604,-116.3984
CBA,1,70.8247,115.9072,13.8093,11.341,-24.0234,33.3783,-42.6943,13.0023,-33.0317,-66.5704,8.3421,96.747,32.0238,-21.6269,-61.2591,-26.155,20.8385,-46.1251,0.4313,-60.2754,-25.2429,-21.5629,-63.9227,-67.6891,-46.5451,-96.0497,-71.3768,-39.5449,-94.5913,-1.7361,-116.3114
CBA,2,67.1152,112.7956,13.552,11.69,-24.9809,32.773,-43.8201,12.3089,-33.9779,-67.5276,5.8735,94.2486,29.8832,-22.3962,-62.7447,-26.0673,19.6075,-46.9889,-1.6389,-60.6224,-26.2803,-21.4766,-65.1353,-68.7467,-47.8452,-97.2722,-72.2399,-40.0652,-97.2595,-2.9513,-115.0944
CBA,3,64.6998,109.9433,13.4662,12.9986,-25.9383,32.5136,-44.946,11.7888,-34.5801,-68.1367,3.4901,91.7502,27.4001,-25.8155,-64.0555,-26.155,19.2558,-47.8527,-4.0542,-60.8825,-27.2312,-21.1316,-66.3479,-69.7162,-49.0587,-98.1454,-72.4125,-40.3254,-98.8088,-3.8193,-113.6166
CBA,4,63.5783,107.3503,13.4662,14.6561,-26.3735,32.773,-45.7254,11.6154,-34.5801,-68.4848,1.8727,89.2519,25.6019,-31.2008,-64.6672,-26.155,19.0799,-48.2846,-5.6932,-60.0153,-27.4906,-20.5279,-66.8676,-70.1569,-49.6654,-98.2327,-71.722,-39.805,-99.4113,-3.8193,-112.3996
CBA,5,63.6646,104.8437,13.6378,16.4009,-26.2865,33.2918,-45.8986,11.7888,-34.15,-68.7459,1.4471,86.9258,24.6601,-37.0991,-64.3177,-26.3306,18.6403,-48.3709,-6.3833,-58.8878,-27.0583,-20.1829,-66.781,-70.3332,-49.9255,-98.1454,-71.1179,-38.9378,-100.0998,-3.1249,-112.2257
CBA,6,63.9234,102.8558,14.0666,17.8839,-26.1124,33.7242,-45.8986,11.9621,-33.6338,-69.0939,1.7025,85.6336,24.0607,-41.8861,-63.6186,-26.7694,18.4645,-48.3709,-6.6421,-58.3675,-26.4532,-20.3554,-66.6078,-70.5094,-50.0988,-97.9707,-70.8589,-38.0706,-100.6163,-2.2569,-113.182
CBA,7,63.8371,101.3864,14.4097,19.2798,-26.1994,34.1565,-46.0718,12.2222,-33.1177,-69.181,1.9578,85.7197,23.6326,-44.365,-63.0069,-26.8572,18.9041,-48.5437,-6.9008,-58.9745,-25.8481,-20.3554,-66.4345,-70.6857,-50.2722,-97.7088,-70.5137,-37.637,-99.8416,-1.7361,-113.4428
CBA,8,63.4058,100.0035,14.7528,20.3266,-26.2865,34.7619,-46.3316,12.829,-32.6016,-68.3108,1.8727,87.012,23.8038,-44.365,-62.7447,-26.2428,19.4316,-48.6301,-7.2459,-60.4489,-25.4158,-19.6653,-66.3479,-70.4213,-50.1855,-97.1849,-69.9096,-37.2901,-97.0013,-1.3888,-111.965
CBA,9,62.7157,97.6698,14.5813,20.9373,-26.4606,35.713,-46.5048,13.6091,-32.1715,-66.7444,1.6174,88.4765,24.4888,-43.6812,-62.7447,-24.5752,19.5196,-48.6301,-7.5909,-62.0967,-24.9836,-18.1991,-66.2613,-69.5399,-49.8388,-96.399,-68.8739,-37.03,-92.6117,-1.302,-108.3139
CBA,10,61.5942,94.0396,13.9809,21.199,-26.9828,36.4913,-47.0244,14.1292,-32.4296,-65.091,0.8512,89.0796,25.0026,-45.5618,-63.6186,-22.7321,19.5196,-48.9756,-8.281,-63.8313,-25.2429,-16.5603,-66.6078,-68.6586,-49.8388,-95.7878,-68.1834,-37.2034,-88.05,-2.4305,-103.8805
CBA,11,60.0414,89.7179,13.1231,21.0245,-27.505,37.0101,-47.7172,14.1292,-33.2037,-64.1338,0.1702,88.8211,25.6876,-51.7165,-65.0168,-21.5033,19.5196,-49.4938,-9.1436,-65.4791,-26.1074,-15.5253,-67.2141,-68.1297,-50.1855,-95.7878,-68.0971,-37.8105,-85.2957,-4.5137,-100.5772
CBA,12,58.3161,85.3098,12.2654,20.1521,-27.9403,37.4425,-48.4966,13.8691,-34.15,-64.0468,-0.8512,88.0458,26.8007,-61.6324,-66.3276,-21.1522,19.4316,-50.0121,-9.6612,-66.8667,-27.0583,-15.5253,-67.907,-67.9535,-50.6189,-96.0497,-68.1834,-38.2441,-84.9515,-6.7706,-99.7949
CBA,13,56.1594,80.9881,11.2361,18.5818,-28.2014,37.7019,-49.1028,13.4357,-34.9241,-64.3949,-2.2983,87.2704,28.1707,-71.9757,-67.2889,-21.5911,18.8162,-50.6167,-9.6612,-68.2544,-27.8364,-16.3015,-68.4267,-68.1297,-51.0522,-96.3117,-68.1834,-38.591,-85.8122,-8.5066,-102.1419
CBA,14,53.1401,77.5308,10.3784,16.5754,-28.4625,37.4425,-49.7956,12.7423,-35.6123,-65.091,-4.9372,86.0643,28.7701,-80.0109,-68.0754,-22.7321,18.2007,-51.3077,-9.6612,-69.8154,-28.7009,-17.4228,-69.033,-68.7467,-51.659,-96.9229,-68.0971,-39.0246,-86.7589,-10.0691,-106.2276
CBA,15,48.8268,75.7157,9.6065,14.7433,-28.8977,36.4913,-50.4884,11.7888,-36.1284,-65.5261,-8.6826,83.9967,28.0851,-84.7979,-68.5997,-24.0486,18.0248,-51.9988,-9.92,-71.2031,-29.6518,-18.2853,-69.8992,-69.5399,-52.3524,-97.4468,-68.0971,-39.9785,-86.5007,-11.1975,-110.0525
CBA,16,44.1684,75.4564,8.8345,13.173,-29.507,35.2807,-51.1812,10.922,-36.7306,-65.5261,-12.2578,82.0152,26.3726,-85.6527,-69.0366,-25.1896,17.6731,-52.6034,-10.3513,-71.7234,-30.8621,-18.6303,-70.9386,-70.0687,-52.9591,-97.7961,-68.356,-41.366,-84.9515,-11.8051,-111.7911
CBA,17,40.804,76.4071,8.1484,12.4751,-29.9422,34.243,-51.7008,10.4019,-37.3327,-65.3521,-14.6413,80.8953,24.4888,-82.3189,-69.561,-25.8917,16.9697,-53.1217,-10.8688,-70.7694,-31.8994,-18.6303,-71.8047,-70.245,-53.3925,-98.2327,-69.3917,-42.8403,-83.5743,-11.8051,-111.7042
CBA,18,39.51,77.7036,7.5479,12.6496,-30.4645,33.1189,-52.3071,9.6217,-38.3649,-66.2223,-16.0884,79.9476,22.6051,-74.9675,-70.6096,-26.945,16.3542,-53.8127,-11.7314,-68.7747,-33.0233,-19.2341,-72.8441,-70.5094,-54.0859,-99.3678,-71.8946,-44.488,-84.7793,-11.6315,-111.2695
CBA,19,39.5963,78.7408,7.2049,13.2603,-30.8126,31.5624,-52.7401,8.7549,-39.3972,-67.6146,-17.0248,78.5692,21.2351,-64.8807,-72.0078,-28.3492,16.0025,-54.6764,-12.7665,-66.8667,-34.0606,-20.0104,-73.7969,-70.862,-54.6926,-100.6776,-74.5702,-45.6154,-88.1361,-11.2843,-111.0087
CBA,0,41.5804,-20.5712,39.4552,113.4103,31.7701,111.1169,-49.1028,91.1896,56.6872,33.2417,-352.5827,-178.5038,-12.6725,-267.8144,-21.6723,71.0925,-8.0892,-4.3188,-4.1405,62.01,35.098,36.1394,-53.8752,-24.5902,0.8668,42.5238,9.4076,22.9811,134.3559,6.0762,-0.6954
CBA,1,30.8834,-32.4125,53.6933,121.1746,59.2751,119.4182,-49.1028,82.348,43.8702,17.8391,-392.8462,-223.9912,-55.3139,-279.1835,-25.43,56.1719,-8.6167,-10.1924,13.7154,48.7407,25.2429,21.5629,-58.8989,-36.753,-8.841,28.6403,-7.7677,5.5502,116.2811,-8.5935,-19.0375
CBA,2,27.1739,-35.697,60.8124,128.1537,73.5499,114.3163,-46.3316,74.1132,39.1391,10.0073,-423.8313,-253.5408,-61.9927,-283.2011,-22.0218,44.2354,-7.2099,-12.5246,31.0538,26.2784,22.9088,13.1965,-58.5525,-44.3328,-12.568,22.9646,-14.9313,-3.2087,108.9651,-13.5412,-26.7742
CBA,3,29.9344,-31.8075,59.8689,134.3476,71.9831,102.2102,-42.5211,68.3055,41.1176,9.3982,-430.3858,-261.9836,-44.2682,-284.2269,-14.3317,36.0729,-5.0118,-12.0064,44.3379,-3.2089,26.799,10.6089,-54.4815,-46.9769,-11.1812,24.1871,-13.4641,-3.8157,111.0308,-10.5031,-25.9049
CBA,4,38.6473,-23.4235,52.0637,138.884,57.5343,93.7359,-39.8365,66.0518,46.3648,13.2271,-412.7652,-253.5408,-21.0638,-297.904,-6.2046,31.86,-2.9895,-9.7606,52.2738,-32.436,33.0233,11.9027,-49.8042,-45.9193,-7.1941,29.0769,-7.5088,-0.0867,117.8303,-4.0797,-20.7761
CBA,5,49.7757,-14.4344,42.6287,140.1054,40.3001,91.5741,-38.5375,67.352,51.7841,18.5353,-384.5041,-235.2769,-13.1863,-325.8565,0,31.86,-1.143,-7.1693,57.4495,-50.7355,38.8153,15.3528,-46.253,-42.9226,-2.687,34.4033,-0.7768,4.3361,125.4045,1.9097,-15.2996
CBA,6,52.5362,-12.4464,33.6227,135.0455,32.8146,92.9577,-36.5457,71.2527,55.3969,22.9733,-380.333,-213.8254,-42.8126,-341.8416,4.9811,36.3362,-2.0223,-4.9235,67.6282,-48.7407,42.8784,19.3203,-43.2214,-39.2209,0.9534,38.2453,3.6249,6.4174,130.7409,5.0345,-11.7355
CBA,7,42.098,-20.2254,25.217,123.3556,40.6483,93.9954,-31.8692,75.7602,56.8592,25.4099,-419.0643,-194.2693,-106.6034,-329.6177,10.6614,42.6555,-7.6496,-2.6777,87.8994,-30.3545,45.8176,22.4254,-39.4103,-35.9598,3.6404,39.817,4.4017,5.2033,132.2041,5.0345,-10.9531
CBA,8,27.1739,-31.2889,22.9012,106.2568,62.1475,87.0776,-22.3431,77.9273,58.2356,26.019,-472.3518,-171.181,-163.5442,-293.8008,21.9344,46.3418,-15.0353,0.1728,125.3364,-11.2745,50.2265,23.7192,-32.6543,-34.0208,6.414,40.3409,2.8482,2.6016,130.5688,5.6422,-12.344
CBA,9,21.6529,-36.1292,31.1353,85.7557,87.5635,64.8542,-8.7467,75.4135,62.9667,27.3243,-501.8046,-135.7731,-182.7243,-241.315,38.8877,45.0253,-18.9041,4.0597,171.0544,-9.4533,58.612,24.4092,-22.0005,-33.1394,10.7478,43.1351,3.8839,3.9025,130.7409,11.1107,-11.8224
CBA,10,29.8482,-30.511,45.8881,68.8314,102.3606,31.9083,3.2908,69.7791,71.3106,31.5883,-493.122,-103.3805,-154.8961,-176.6053,54.9671,40.9879,-17.0576,8.033,202.5395,-25.758,69.3316,26.738,-11.2601,-32.0818,16.6418,49.5093,10.4433,11.5339,136.1633,21.7874,-6.3458
CBA,11,47.3602,-14.953,54.7226,63.4226,96.2677,2.4212,8.5735,65.3583,81.8911,39.6812,-462.3072,-89.5103,-92.6465,-114.2036,63.9681,39.3203,-11.4304,11.92,204.351,-46.4858,79.3596,32.6031,-3.7245,-28.7326,23.5759,59.2889,22.5264,24.889,147.5246,35.4154,5.2158
CBA,12,64.2685,3.5438,48.3755,70.3144,71.9831,-14.095,6.5817,64.5782,92.4715,50.1236,-435.5783,-95.2824,-24.3176,-77.9594,63.8807,41.7778,-5.7152,15.2023,174.8499,-61.5764,86.7077,41.142,-0.8662,-23.0918,30.25,70.2909,36.9399,41.1059,161.9844,48.9566,19.9068
CBA,13,74.1028,16.5952,34.8235,83.4875,42.5632,-15.565,-1.299,65.6184,98.0628,57.6073,-415.9148,-112.8571,34.2501,-81.3786,54.705,44.762,-1.7585,15.7206,125.854,-69.2084,88.1773,47.0933,-3.8977,-18.8613,33.3703,77.1017,47.0379,53.2468,172.399,56.3349,30.3383
CBA,14,77.0359,22.0405,23.5016,98.1436,16.0156,-3.4589,-13.25,67.4387,97.1166,58.9996,-391.1437,-118.1123,82.7996,-113.0069,40.1112,46.6051,0.7913,13.0429,75.4779,-67.4738,83.1633,48.3871,-12.0396,-18.1562,31.5501,77.3637,49.2819,57.4095,175.1532,55.814,32.9462
CBA,15,77.5535,22.127,16.7256,104.163,-5.7447,11.8467,-23.6421,72.553,96.4285,60.2179,-352.2422,-97.6946,131.6916,-144.4642,29.8867,53.0122,1.4947,11.4017,41.6638,-50.562,78.5816,51.0609,-18.3626,-16.3934,30.51,77.8876,51.0081,60.0111,177.5632,55.7272,35.8149
CBA,16,77.9848,20.3983,10.6357,95.2647,-22.7178,17.4674,-26.8463,82.088,103.138,68.4848,-320.4059,-68.0589,178.9567,-164.9798,30.7606,68.0206,-0.8793,14.4249,31.3988,-20.2942,81.953,61.1523,-17.0634,-8.8137,35.5372,85.6589,60.4157,70.0708,187.9777,63.7131,47.5503
CBA,17,79.9689,21.7812,4.9748,77.8169,-34.1202,7.696,-23.4689,92.0564,115.2668,82.147,-303.2109,-32.048,215.0906,-167.8862,39.6742,86.8031,-3.7808,20.644,37.1782,10.8409,91.8082,75.7288,-9.6144,2.4678,45.0716,98.6693,75.6059,86.1142,204.245,77.4279,65.2839
CBA,18,84.196,26.9672,1.7154,61.4161,-38.9075,-12.9708,-16.714,98.6443,128.4279,96.3312,-298.6142,7.4951,236.1544,-141.9852,50.0734,102.1626,-4.5722,27.4678,45.2867,29.8342,103.3922,89.4428,-0.1732,13.3087,55.4727,112.2036,91.314,102.6779,220.7705,91.5767,82.6698
CBA,19,88.423,32.8447,0.6862,51.2091,-37.6889,-35.9725,-9.9591,100.0312,138.5783,106.7736,-305.8497,42.2137,243.1757,-95.0557,57.7636,109.0086,-3.605,32.6504,48.2196,29.574,112.9015,98.1542,7.8821,20.1833,63.6203,122.3324,103.4834,115.6861,233.5089,102.427,94.666
CBA,0,-224.9827,88.5078,3.9455,46.9344,-27.505,-33.0324,20.6111,-5.1142,39.2251,-14.2713,185.1442,12.1472,-27.1432,28.3799,-35.3922,-46.6051,-28.8397,-22.7171,14.3192,20.8145,28.0093,4.9163,-46.5128,7.6679,1.9936,-36.3243,34.0917,-25.1492,24.0136,8.9407,-38.5966
CBA,1,-224.9827,89.4586,4.6317,46.6727,-27.1569,-32.9459,20.3513,-5.3743,37.7628,-15.0545,185.3996,12.4057,-26.4582,26.9268,-35.13,-47.1317,-28.576,-23.0626,15.0956,20.7278,27.4906,4.8301,-46.9459,7.5798,1.3868,-37.1101,32.4518,-27.057,23.6694,5.729,-38.3358
CBA,2,-225.069,91.1872,5.4894,45.2769,-26.8087,-33.2054,20.2647,-5.721,36.5585,-15.9247,184.974,12.3195,-25.5163,24.3623,-35.0426,-47.8339,-28.1363,-23.4945,15.6131,19.9473,27.0583,4.3126,-47.5522,7.2272,0.6934,-37.896,30.9846,-29.1383,23.4111,2.8645,-38.3358
CBA,3,-225.2415,93.4345,6.5187,43.2704,-26.5476,-33.7242,20.0914,-6.0678,35.8704,-16.5338,183.4417,11.5442,-24.9169,20.7721,-35.3048,-48.1849,-27.5208,-23.84,15.6994,18.8198,26.799,3.7951,-47.9853,6.9628,0.1734,-38.4199,30.0352,-30.8728,23.8415,1.4756,-38.162
CBA,4,-225.8454,95.6818,7.3764,41.3512,-26.4606,-34.0701,20.0048,-6.1544,35.9564,-16.6208,181.1434,10.6827,-24.8313,16.9254,-35.7418,-47.8339,-27.2571,-24.0127,15.4406,17.9525,26.9719,3.7951,-48.1585,7.0509,0,-38.3326,30.1215,-31.6533,25.1325,2.0833,-37.3796
CBA,5,-227.0531,97.4105,7.6337,39.7809,-26.5476,-34.5024,20.0048,-6.0678,36.5585,-16.1857,178.4194,10.2519,-25.2594,13.848,-36.2661,-46.8684,-27.6967,-24.1855,15.0956,17.6924,27.4041,4.1401,-48.2452,7.4035,0.0867,-37.896,30.812,-31.2196,26.94,4.4269,-35.9887
CBA,6,-228.5197,98.9663,7.4622,38.9085,-26.9828,-34.9348,19.6584,-6.0678,36.9026,-16.0117,175.7806,10.2519,-26.2013,12.3094,-36.7904,-45.8152,-27.8725,-24.4446,14.4918,17.5189,27.4041,4.2263,-48.505,7.4035,-0.0867,-37.7213,31.4161,-30.6126,28.0589,7.1178,-35.0325
CBA,7,-229.7274,100.1763,7.2906,38.9085,-27.505,-35.2807,19.0522,-6.2411,36.9886,-16.2728,173.8227,10.6827,-26.9719,12.9932,-37.3147,-45.0253,-27.7846,-24.8765,13.9742,17.6056,27.0583,3.8813,-48.9381,7.0509,-0.5201,-37.896,31.5025,-30.2657,28.145,9.4615,-34.5109
CBA,8,-230.245,101.2135,7.3764,39.7809,-27.5921,-35.1077,18.7924,-6.2411,36.8166,-16.6208,173.3971,11.8888,-27.2288,16.1561,-37.4895,-44.1476,-27.6967,-25.1356,13.8879,18.2127,26.6261,3.6226,-49.1113,6.7865,-0.8668,-38.2453,31.2435,-30.0923,27.5425,11.1107,-34.2501
CBA,9,-230.4175,101.7321,7.5479,41.0894,-27.5921,-34.7619,18.5326,-6.3278,36.3005,-17.404,173.993,13.3533,-27.3144,20.8576,-37.5769,-43.621,-27.7846,-25.3947,13.7154,18.9933,25.9345,2.8463,-49.4578,6.1696,-1.3001,-39.2058,30.5531,-30.3524,26.0793,11.7183,-34.9456
CBA,10,-230.4175,101.8186,7.8053,42.6597,-27.8532,-34.416,17.9264,-6.6745,35.4403,-18.4483,174.8442,14.8179,-27.8282,25.8155,-37.7517,-43.4454,-27.4329,-25.913,13.1978,19.7738,25.1565,1.725,-50.1507,5.2001,-2.1669,-40.6902,29.4311,-31.0462,24.0136,11.2843,-36.5972
CBA,11,-230.5901,101.3,7.891,44.23,-28.2884,-33.9836,17.2336,-6.9346,34.7521,-19.2314,175.5252,16.4547,-28.9413,30.4315,-37.7517,-43.2699,-26.8174,-26.4313,12.5078,20.7278,24.5513,0.9488,-50.9303,4.3187,-2.7736,-41.9999,28.8269,-31.5665,22.4644,10.4163,-38.5097
CBA,12,-231.0214,100.3492,7.6337,45.1897,-28.6366,-33.3783,16.8872,-6.7612,34.5801,-19.4055,175.9508,18.0054,-29.9688,34.1072,-37.4895,-43.0066,-26.5537,-26.604,11.9039,22.0287,24.4649,0.6038,-51.1901,4.0543,-3.0337,-42.5238,29.2584,-31.3931,22.2922,10.0691,-40.0744
CBA,13,-231.9703,98.8798,6.776,45.1024,-28.8977,-32.8595,17.0604,-6.5012,35.0102,-18.9704,176.1211,19.0393,-30.6538,36.4152,-37.0526,-43.1821,-27.0812,-26.4313,11.4726,23.3296,24.9836,0.4313,-51.1035,4.2306,-2.947,-42.3492,30.5531,-30.6993,23.6694,10.0691,-41.0306
CBA,14,-233.4369,97.2376,5.4894,44.0556,-29.3329,-32.6865,17.3202,-6.5012,35.1822,-18.6223,175.6103,19.1254,-31.082,36.8426,-36.9652,-44.0598,-27.6088,-26.4313,10.8688,24.1102,25.3294,0,-51.1035,4.4068,-3.0337,-41.9999,31.8477,-30.3524,25.649,9.8955,-41.813
CBA,15,-235.0759,95.6818,3.9455,42.398,-29.7681,-32.9459,17.3202,-6.5878,35.0102,-18.3612,174.5889,18.5223,-31.5957,35.6459,-37.4895,-45.4641,-27.9605,-26.5176,9.8337,24.2836,25.1565,-0.1725,-51.2767,4.2306,-3.207,-41.6507,32.9697,-30.4392,27.9729,9.2011,-42.5954
CBA,16,-236.4562,94.3853,2.6589,40.6532,-29.6811,-33.0324,17.6666,-6.3278,35.0102,-17.5781,173.7376,18.0916,-32.0238,33.9363,-37.9265,-46.3418,-28.4001,-26.2585,9.0573,24.5438,25.1565,0.1725,-50.9303,4.495,-3.1203,-40.9521,34.0917,-30.3524,30.555,8.7671,-42.4215
CBA,17,-237.8364,93.1752,1.5439,38.9085,-29.42,-33.0324,18.013,-6.1544,34.8381,-17.23,173.0566,17.4885,-32.1951,32.1411,-38.3634,-47.044,-29.1035,-26.0858,8.8848,24.6305,25.1565,0.4313,-50.5838,4.5831,-3.1203,-40.6902,34.178,-30.179,31.846,8.333,-41.8999
CBA,18,-239.303,91.8787,0.8577,37.5126,-29.1588,-33.5512,17.9264,-6.6745,33.8059,-18.6223,172.2054,16.2824,-32.6232,29.9186,-39.2373,-48.2727,-29.5431,-26.4313,8.9711,24.1969,24.6378,-0.69,-50.757,3.7017,-3.8138,-41.9126,32.0203,-31.0462,29.35,7.3782,-42.3346
CBA,19,-240.942,90.0636,0.5146,36.2913,-29.0718,-34.3295,17.58,-7.8881,32.5156,-21.3199,171.3542,14.4733,-32.9657,27.0977,-39.4994,-50.0281,-29.719,-27.1223,9.8337,23.2429,23.9462,-2.8463,-51.1901,2.0271,-4.6805,-44.0956,28.6543,-32.347,23.7554,6.597,-43.5516
CBA,1,-26.3112,-37.685,42.8003,19.5415,-24.7197,-26.4605,11.9509,-64.0581,7.6558,-42.7269,-33.709,-12.3195,-48.0358,27.0122,40.8977,12.2876,-34.7308,-38.9559,-2.8466,-4.5965,-17.9813,-54.7697,-46.253,-6.5221,-44.5515,-56.6693,35.3,23.2413,-19.0216,47.1338,36.858
CBA,2,-26.7426,-38.6357,42.8861,19.6287,-24.3716,-24.9905,12.384,-62.9312,8.3439,-41.7696,-32.6024,-11.1134,-47.0083,24.6187,40.8103,13.8674,-34.9946,-38.2649,-2.5016,-3.0355,-17.8084,-53.6484,-45.8199,-5.5526,-43.7715,-55.7962,36.0768,23.4147,-17.8166,47.2206,38.4228
CBA,3,-27.519,-39.8458,42.8003,19.367,-24.2845,-23.434,12.9902,-61.631,8.9461,-40.8124,-32.6875,-10.2519,-46.4945,22.0543,40.6355,15.0084,-35.5221,-37.4875,-2.5016,-2.3416,-17.7219,-52.7859,-45.3868,-4.7594,-42.9047,-55.0103,36.7672,23.5882,-17.0419,47.2206,39.1182
CBA,4,-28.7267,-41.4016,42.3714,18.5818,-24.7197,-22.2234,13.3366,-60.7642,9.3762,-40.2903,-33.6239,-10.7688,-46.7514,19.6608,40.6355,15.7106,-36.0497,-36.9692,-2.7603,-2.6885,-17.549,-52.1822,-45.127,-4.2306,-42.2113,-54.4864,37.2851,23.8483,-16.5255,47.1338,39.1182
CBA,5,-29.8482,-43.1303,41.9426,17.535,-25.0679,-21.0128,13.8562,-59.8107,9.8923,-39.5941,-34.9007,-11.9749,-47.1795,18.0367,41.0724,16.4127,-36.7531,-36.1918,-2.9329,-3.2089,-17.2032,-51.4059,-44.6939,-3.4373,-41.3445,-53.7878,38.1482,24.4554,-15.4066,47.7414,39.6398
CBA,6,-30.7971,-44.7725,41.771,16.5754,-25.0679,-19.9751,14.6356,-58.6838,10.8385,-38.3759,-35.752,-13.2672,-47.522,17.5238,41.7715,17.4659,-37.5444,-35.2417,-2.7603,-3.3824,-16.4252,-50.1121,-43.9144,-2.2034,-40.1311,-52.6527,39.4428,25.6695,-13.3409,49.0434,41.2914
CBA,7,-31.6598,-46.3283,41.6852,15.6157,-24.8068,-19.5427,15.5882,-57.6436,11.7847,-36.8965,-36.1776,-14.9902,-47.6933,18.5495,42.558,18.7825,-38.3357,-34.2915,-2.4153,-3.0355,-15.6472,-48.6459,-43.1348,-0.8814,-38.9176,-51.5176,40.7374,26.8836,-10.8449,50.2587,43.4647
CBA,8,-32.2636,-47.3655,41.8568,14.5689,-24.4586,-20.2345,16.4542,-56.8635,12.4729,-35.7653,-36.0074,-17.0578,-47.6076,21.3704,43.0824,20.099,-38.6874,-33.6869,-1.984,-2.3416,-15.1285,-47.2658,-42.5285,0.3525,-37.7908,-50.6444,41.6868,27.6641,-8.8652,50.8663,45.464
CBA,9,-32.3499,-47.7112,42.3714,13.522,-24.0234,-21.964,17.3202,-56.5168,12.903,-34.9821,-35.3264,-19.0393,-47.1795,25.0462,43.6067,21.0645,-38.8633,-33.1686,-1.4664,-1.7345,-14.6962,-46.2308,-42.0088,1.2339,-36.924,-50.0332,42.291,28.011,-7.5742,51.0399,47.1157
CBA,10,-31.9186,-47.9705,43.1434,12.8241,-23.5012,-24.2122,18.013,-56.5168,13.2471,-34.3729,-34.4751,-20.6761,-46.3233,28.9783,44.0436,21.4155,-38.8633,-32.6504,-0.7763,-1.1275,-14.264,-45.4545,-41.3159,1.8509,-36.144,-49.5093,42.5499,28.1844,-6.8856,51.3003,48.7673
CBA,11,-31.3147,-48.9213,44.0869,12.9986,-22.8048,-25.8552,18.7058,-56.6901,13.5051,-34.0249,-33.3685,-22.2268,-45.2957,32.4831,44.3932,21.1522,-38.7754,-32.0457,0,-0.3469,-13.9182,-45.1958,-40.7096,1.939,-35.4505,-49.16,42.7225,28.2711,-6.4553,51.6475,50.0713
CBA,12,-30.8834,-50.7364,44.8588,14.1327,-22.2826,-26.374,18.9656,-56.7768,13.6772,-33.7638,-32.4322,-24.3806,-44.4395,34.3637,44.4806,20.6256,-38.3357,-31.6139,0.5176,0.6071,-13.8317,-45.1958,-40.4497,1.7627,-35.1905,-48.898,42.8951,28.0977,-5.9389,51.7343,51.4622
CBA,13,-30.7108,-52.8108,45.1161,16.1392,-22.2826,-25.6823,19.1388,-56.4301,13.7632,-33.4157,-32.0065,-26.4482,-43.8401,34.7056,44.3932,20.1868,-38.072,-31.3547,0.8626,2.0815,-14.0046,-45.1095,-40.4497,1.6746,-35.1038,-48.6361,43.3267,27.9242,-4.7339,51.6475,53.4615
CBA,14,-30.3658,-54.1938,45.0304,18.9308,-22.5437,-23.6069,19.1388,-55.6499,13.7632,-32.5455,-31.9214,-27.1374,-43.4976,34.5346,44.2184,20.1868,-38.1599,-31.0956,1.0351,4.4231,-14.3504,-44.592,-40.5363,1.8509,-35.0172,-48.1995,44.3624,27.9242,-2.496,51.2135,55.4609
CBA,15,-29.8482,-54.1938,45.0304,21.8097,-22.8919,-20.9263,18.9656,-54.6098,13.8492,-31.4143,-31.5809,-26.1897,-43.2407,34.0217,43.7815,20.2745,-38.072,-30.7501,1.0351,6.8515,-14.9556,-43.9883,-40.7962,2.3797,-34.9305,-47.501,45.8296,27.8375,0.7746,50.5191,56.591
CBA,16,-29.2443,-52.638,44.9446,23.9906,-23.153,-18.4186,18.7924,-53.6563,14.0213,-29.9349,-31.2404,-24.3806,-42.9839,32.4831,43.4319,20.6256,-37.6323,-30.4046,0.9489,8.586,-15.6472,-43.1258,-41.1426,2.9967,-34.7571,-46.7151,47.7284,27.7508,4.4757,49.7379,56.8518
CBA,17,-28.8992,-50.1314,44.9446,25.3865,-23.153,-16.1703,19.0522,-52.6161,14.6234,-28.1945,-30.7297,-22.4853,-42.6414,29.1493,43.4319,21.5033,-37.0168,-29.8,1.1214,9.3665,-15.82,-41.832,-41.1426,3.9662,-34.1504,-45.4053,49.7135,28.0977,8.1767,49.5643,56.4171
CBA,18,-28.7267,-47.5384,44.6015,25.9099,-23.0659,-14.7003,19.312,-51.9226,15.1395,-26.8892,-30.0487,-20.9346,-42.2989,24.1913,43.5193,22.6443,-36.841,-29.2817,1.5527,9.2798,-15.7336,-40.9695,-41.056,4.8475,-33.5437,-44.5321,50.4902,28.4446,9.812,49.7379,54.9393
CBA,19,-28.8992,-45.0318,43.9153,25.8227,-23.24,-13.922,19.312,-51.9226,14.7094,-27.6724,-29.7933,-20.1592,-42.5557,18.7205,43.4319,23.1709,-36.9289,-29.2817,1.6389,8.8462,-15.9065,-41.6595,-41.5757,4.7594,-33.6303,-45.4053,47.9873,28.011,5.5085,49.6511,51.7229
CBA,0,-29.3306,-42.6117,42.9718,25.2992,-23.7623,-13.7491,18.7924,-52.6161,13.1611,-30.5441,-30.2189,-19.7285,-43.4976,15.2158,42.9076,23.1709,-37.0168,-29.8,1.2939,8.7595,-16.6845,-43.8158,-42.4419,3.7017,-34.4104,-47.8502,43.154,26.7969,-4.2174,49.1302,47.0288
CBA,1,-106.9703,-126.0199,30.0202,9.858,25.4161,32.3406,-16.8006,-48.9754,-36.2144,32.7196,-56.2668,-257.5899,-97.9553,-51.2891,-23.5074,20.2745,-84.6727,-21.4214,-7.3321,4.77,-55.154,2.07,-65.1353,-41.3362,-52.8724,-16.0665,-1.8125,-10.9269,-39.4202,18.3153,0.8693
CBA,2,-114.9931,-137.7749,13.8951,17.9712,11.0542,51.0186,-19.4852,-46.4616,-35.9564,31.2402,-51.585,-283.6073,-102.1509,-32.825,-21.1479,20.8012,-87.8381,-21.7669,-1.2939,4.9435,-54.5489,1.6388,-65.5684,-41.4243,-53.3058,-16.2411,-1.9851,-10.4933,-43.3795,21.1798,-3.3033
CBA,3,-117.3223,-147.2825,2.2301,6.4557,0.2611,54.9099,-18.5326,-40.8273,-29.5049,36.9835,-38.0503,-265.085,-101.4659,2.0516,-15.7299,29.4902,-92.9378,-18.3982,-0.1725,13.6162,-48.9298,8.4526,-61.4974,-35.8717,-48.452,-9.6923,5.7826,-2.7751,-37.957,30.5545,1.217
CBA,4,-108.0055,-145.2081,0.1715,-16.6626,-5.5706,39.1719,-13.5098,-34.4128,-17.8922,48.5572,-7.6611,-201.2475,-88.0227,38.5523,-6.7289,42.7433,-95.3118,-12.0927,0.345,26.0182,-38.9018,20.3554,-53.1823,-26.6173,-39.4376,2.3576,19.9372,10.58,-24.2718,44.7901,13.3871
CBA,5,-91.1836,-133.2803,3.1736,-43.0087,-9.2264,11.5008,-4.6765,-27.3049,-1.8924,64.6559,24.09,-140.5975,-59.9377,65.9919,6.9037,58.5416,-95.1359,-3.6278,5.0031,40.3282,-24.4649,35.7944,-40.9694,-14.6307,-27.043,18.686,39.5291,29.1383,-4.8199,63.7999,30.686
CBA,6,-74.0166,-116.858,8.4914,-62.2012,-11.4895,-14.8732,4.2435,-21.2371,12.903,79.7974,44.5197,-125.1766,-27.8282,73.7708,19.5749,71.7947,-93.1136,3.887,8.7986,52.3833,-10.4603,49.0771,-29.7959,-3.4373,-15.7751,33.6174,57.9127,47.4365,12.6523,81.5944,44.7686
CBA,7,-63.9234,-101.3,15.8678,-61.5033,-12.5339,-27.9305,7.2745,-18.9834,18.6663,86.1499,40.0082,-158.9476,-2.6544,58.8115,22.284,77.0608,-88.5415,6.3055,1.5527,57.6736,-4.8411,53.6484,-26.4179,1.4983,-11.6146,39.3804,65.5941,56.5423,17.8166,89.4066,47.5503
CBA,8,-64.7861,-95.9411,21.7861,-39.8681,-14.1007,-19.2833,1.4722,-20.1969,13.1611,81.4508,3.5752,-210.8963,6.5931,29.2348,11.6226,73.9011,-83.178,2.5913,-20.7888,56.5462,-10.8925,48.5596,-33.3472,-1.2339,-16.2951,33.9667,60.3294,53.2468,8.8652,84.6325,38.8574
CBA,9,-74.0166,-99.8306,26.0747,-7.2408,-14.797,6.8313,-10.6519,-24.271,-0.8602,68.3108,-47.2437,-240.5321,-1.6269,-5.3854,-7.428,63.72,-78.5179,-5.6145,-48.6509,48.9142,-25.6752,36.1394,-47.4656,-10.2239,-27.4763,20.1704,45.2254,39.9785,-9.9842,69.9629,22.08
CBA,10,-88.078,-107.696,29.1625,19.1925,-10.2709,35.3672,-22.6029,-29.732,-16.0857,52.7342,-96.5304,-238.8952,-24.0607,-34.8766,-25.1678,50.3792,-76.6715,-14.1658,-67.8007,36.252,-41.7546,21.9079,-61.2376,-21.241,-39.5243,4.8025,28.3091,23.6749,-29.6082,53.21,4.2595
CBA,11,-104.2098,-116.0801,25.3028,26.9568,-3.3076,54.3911,-27.9721,-33.0259,-23.9996,43.51,-136.9642,-216.1515,-47.6933,-44.707,-32.2462,41.4268,-79.573,-18.4846,-68.4908,25.758,-50.14,13.6277,-67.4739,-28.2038,-45.8517,-3.58,19.2467,14.309,-39.6784,44.1825,-5.1288
CBA,12,-116.1146,-123.2541,16.0394,17.8839,3.0464,57.5905,-25.7205,-33.4593,-22.3652,43.336,-155.9467,-190.651,-67.1302,-32.1411,-27.2651,39.4081,-85.2882,-17.7072,-51.0662,21.0747,-48.3246,13.369,-64.7888,-28.997,-44.8982,-2.7942,20.5413,15.3497,-38.6456,45.3977,-4.4334
CBA,13,-117.4948,-125.6742,9.5207,2.3554,8.7041,44.5332,-18.1862,-32.8525,-14.6234,49.0793,-144.9658,-177.7284,-82.2002,-9.8304,-15.2929,42.2167,-89.5087,-13.5611,-24.7567,21.3349,-39.5933,18.1128,-56.5603,-25.8241,-39.0043,3.9293,28.3954,23.328,-30.8993,53.0364,2.521
CBA,14,-109.472,-122.044,10.3784,-10.7304,12.708,22.5693,-9.2663,-32.1591,-5.1612,56.8241,-113.0444,-190.9956,-87.1665,4.0176,-2.709,47.044,-90.3,-8.6377,-1.2076,25.0642,-28.9602,24.4954,-47.0325,-21.0647,-31.8101,12.3118,38.1482,33.5611,-21.5176,62.0638,11.04
CBA,15,-99.1201,-115.7343,14.1524,-16.4881,13.6655,2.5942,-2.3382,-31.1189,1.6344,62.6545,-75.2494,-219.7698,-79.7171,-1.7951,6.2919,51.7835,-88.6294,-4.7507,13.9742,32.5227,-20.7476,29.3255,-39.6702,-16.9223,-26.1762,18.5114,44.7939,40.8457,-15.1484,67.9664,16.5166
CBA,16,-92.5638,-111.9313,15.6105,-15.6157,12.1858,-8.3013,1.3856,-29.2119,4.301,65.178,-40.604,-239.0675,-69.4421,-19.9173,11.0109,56.523,-86.783,-2.6777,21.3926,45.3584,-16.6845,31.9993,-35.7724,-14.2782,-23.3159,20.9563,46.3474,42.8403,-13.3409,69.0948,17.8205
CBA,17,-90.4072,-114.0921,13.9809,-14.7433,9.4875,-8.9066,3.3774,-24.9645,5.0752,66.5704,-14.7264,-242.5997,-71.7539,-34.1072,14.0695,63.3689,-86.695,-1.2093,26.9133,65.4791,-14.8691,34.6731,-33.607,-11.7222,-21.669,21.9168,45.3981,41.7996,-13.5991,68.2268,18.2552
CBA,18,-91.3561,-120.7475,13.1231,-19.1925,10.1838,-5.6207,5.9755,-20.1969,5.4193,67.5276,1.1066,-225.025,-103.5209,-37.8684,18.4389,70.6537,-88.6294,0.3455,40.1111,85.86,-13.313,37.2607,-31.0086,-9.0781,-20.2822,22.2661,43.2404,39.7183,-15.0623,66.9248,19.1244
CBA,19,-94.0304,-126.5385,15.8678,-28.7888,16.799,-6.8313,11.4313,-18.3766,6.5375,67.7016,12.2578,-181.4329,-168.6817,-31.2863,27.9642,73.7256,-91.0913,1.9867,71.5962,92.1911,-9.7687,38.1232,-26.1581,-7.8442,-18.722,22.7027,40.8237,38.0706,-17.4723,67.272,19.733
CBA,20,-67.9779,-57.2189,-21.0999,18.0584,-66.0643,-72.8097,-23.1225,-63.0179,-10.4084,-54.3876,-41.1148,-0.6892,-50.3476,-49.0665,-57.5014,-88.734,-44.7543,25.9994,-84.9665,-19.2535,-3.285,-21.8216,-35.3394,10.7527,-63.6203,-8.7318,-109.9565,-111.7837,-74.2787,-51.4739,-105.0106
CBA,0,-67.3741,-59.4662,-20.0707,18.5818,-66.0643,-72.5502,-23.7287,-63.6247,-11.1826,-55.5188,-39.923,-0.7754,-49.9195,-47.6133,-57.9383,-87.7686,-44.4906,24.9629,-84.5352,-17.4322,-3.8902,-22.3391,-36.1189,9.8713,-64.8338,-9.8669,-110.647,-112.4774,-76.0001,-51.8211,-104.1413
CBA,1,-67.3741,-61.9728,-18.8699,19.8904,-65.9773,-71.9449,-24.2483,-64.0581,-11.6987,-56.128,-38.9016,0.0862,-49.8339,-46.4166,-58.3753,-86.8909,-43.6113,24.0127,-84.449,-16.218,-4.4953,-22.5979,-36.8985,9.0781,-65.7872,-10.5655,-110.7333,-113.2579,-76.3444,-51.7343,-103.7067
CBA,2,-67.8916,-63.8743,-17.8406,21.548,-65.8903,-70.9937,-24.6813,-64.0581,-11.6987,-55.9539,-38.8164,1.12,-50.6045,-45.1344,-58.7248,-85.9254,-42.4683,23.5808,-84.6215,-15.1773,-4.9276,-22.2529,-37.4181,8.7255,-66.1339,-10.4782,-110.0428,-113.6048,-75.0534,-51.1267,-103.272
CBA,3,-68.323,-64.6522,-17.0687,23.1183,-65.7162,-69.9561,-24.8545,-63.538,-11.0106,-54.8227,-39.4974,2.1538,-51.8033,-43.2538,-58.8122,-84.6967,-41.5011,23.84,-84.8803,-13.9631,-5.014,-21.0454,-37.3315,9.3425,-65.7872,-9.343,-108.0577,-113.0845,-71.8688,-50.1719,-102.7505
CBA,4,-68.5818,-64.1336,-16.554,24.1651,-65.5421,-69.1778,-24.9411,-62.9312,-10.4944,-53.2563,-40.1784,3.1014,-52.8308,-41.2877,-58.987,-83.819,-40.6218,24.4446,-85.2253,-13.0958,-4.8411,-19.6653,-37.1583,10.2239,-65.3538,-8.0332,-105.9,-112.2173,-67.6513,-49.6511,-102.9243
CBA,5,-68.668,-62.6642,-15.9536,24.863,-65.4551,-69.0049,-25.2009,-62.7579,-10.3224,-52.038,-40.3487,3.7045,-53.4301,-40.3474,-59.0744,-83.6434,-39.6546,24.7901,-85.3978,-13.1825,-4.9276,-18.9753,-37.1583,10.6646,-65.2671,-7.0728,-104.3465,-111.7837,-63.606,-50.1719,-104.4021
CBA,6,-67.9779,-60.5034,-15.0959,25.4737,-65.0198,-69.0049,-25.2875,-62.5845,-10.2364,-51.1678,-39.6677,4.6521,-53.0876,-40.0055,-58.8122,-83.7312,-38.7754,25.1356,-85.0528,-13.6162,-4.6682,-18.6303,-36.9851,10.929,-65.1805,-6.6362,-103.656,-111.5235,-60.4214,-50.8663,-105.793
CBA,7,-66.8565,-58.2561,-14.2382,25.9971,-64.2365,-69.0049,-25.0277,-62.3245,-10.2364,-51.0808,-38.2206,5.6859,-52.0601,-40.1764,-58.0257,-83.819,-38.1599,25.3947,-84.2765,-14.2233,-4.1495,-18.9753,-36.6386,10.929,-65.0938,-6.8981,-104.778,-111.4368,-60.6796,-51.3871,-106.5753
CBA,8,-66.0801,-56.7003,-13.6378,26.1716,-63.5401,-69.0049,-24.5081,-62.2378,-10.2364,-51.864,-36.6032,6.0305,-50.6901,-40.6893,-56.7149,-83.9068,-37.984,25.4811,-83.1551,-14.8304,-3.285,-19.7516,-36.0323,10.5764,-65.1805,-7.9459,-106.9357,-111.3501,-64.5528,-51.6475,-106.6623
CBA,9,-66.3389,-56.2682,-13.6378,25.9971,-63.3661,-69.1778,-23.9885,-62.3245,-10.3224,-52.9952,-35.5817,5.5136,-49.6626,-41.2022,-55.5789,-83.819,-38.072,25.4811,-82.3787,-15.3507,-2.4206,-20.6141,-35.5992,9.9595,-65.5272,-9.0811,-109.1797,-111.1766,-69.8891,-52.4287,-106.0538
CBA,10,-67.029,-56.5275,-14.0666,25.9099,-63.5401,-68.9184,-23.6421,-62.0644,-10.3224,-53.7784,-35.2412,5.2552,-49.4058,-40.8603,-54.9671,-83.2046,-38.2478,25.4811,-82.2062,-15.1773,-1.6425,-20.7004,-35.1661,9.695,-65.7005,-9.7796,-110.7333,-110.6563,-74.623,-53.4704,-104.6629
CBA,11,-67.4603,-56.9596,-14.5813,26.2589,-63.8013,-68.0537,-23.3823,-61.4576,-10.0643,-54.1265,-35.4115,5.9444,-49.6626,-39.0652,-54.7924,-81.8881,-38.4237,25.6539,-82.2925,-13.8764,-1.0374,-20.0966,-34.6464,10.0476,-65.5272,-9.7796,-111.4237,-110.136,-78.324,-54.078,-102.9243
CBA,12,-67.5466,-57.4782,-14.7528,27.044,-63.8883,-66.7566,-23.0359,-60.5041,-9.6342,-53.9525,-36.0925,6.8059,-50.0908,-36.2443,-54.9671,-80.396,-38.4237,26.0858,-82.1199,-11.9684,-0.6916,-18.8028,-34.2134,10.8408,-65.0071,-9.343,-111.4237,-109.6156,-80.6479,-53.8176,-101.1857
CBA,13,-67.8916,-58.2561,-14.8386,27.9164,-63.9753,-65.546,-22.8627,-59.6373,-9.1181,-53.6044,-37.1991,7.0643,-50.6901,-33.6798,-55.4041,-79.1672,-38.2478,26.4313,-81.7749,-10.494,-0.778,-17.5091,-34.0401,11.7222,-64.5737,-8.7318,-110.9059,-109.6156,-81.7669,-52.4287,-100.0556
CBA,14,-68.4955,-59.2933,-14.8386,28.5271,-64.1494,-64.6813,-22.9493,-59.2039,-8.774,-53.4303,-38.0503,6.3751,-51.2895,-32.825,-55.9284,-78.6406,-38.1599,26.604,-81.3436,-9.8869,-1.1238,-16.3015,-34.0401,12.5154,-64.1403,-8.0332,-110.0428,-109.8758,-81.5086,-50.2587,-99.4471
CBA,15,-69.2719,-60.5034,-15.0101,28.9633,-64.3235,-64.2489,-23.0359,-59.0305,-8.3439,-53.1693,-38.3057,4.4798,-51.632,-34.4492,-56.5401,-78.5529,-38.3357,26.7768,-80.6535,-10.494,-1.6425,-15.3528,-34.2134,13.1324,-63.7936,-7.3347,-108.9208,-110.0493,-79.9594,-47.8282,-98.9256
CBA,16,-70.3934,-61.627,-15.6963,28.9633,-64.9328,-64.6813,-23.4689,-59.2039,-8.1719,-52.8212,-38.6462,1.2923,-52.1458,-38.7232,-57.3266,-78.9917,-38.8633,26.6904,-80.2222,-12.1418,-2.1612,-14.6628,-34.7331,13.3968,-63.707,-6.9854,-107.8851,-110.136,-77.2912,-45.9185,-98.1432
CBA,17,-71.6874,-62.1456,-16.4682,28.7888,-65.8903,-65.546,-24.1617,-59.5506,-8.3439,-52.5601,-39.0718,-2.1538,-52.7451,-44.365,-58.2879,-79.5183,-39.1271,26.4313,-80.3085,-14.31,-2.9392,-14.3178,-35.426,13.4849,-63.8803,-6.8108,-107.281,-110.4829,-74.2787,-44.7901,-97.2739
CBA,18,-72.8088,-61.9728,-17.0687,28.5271,-66.7607,-66.2378,-25.0277,-59.724,-8.9461,-52.3861,-39.5826,-4.4798,-53.3445,-49.5794,-59.3366,-79.9572,-39.215,26.0858,-80.826,-16.5649,-3.8902,-14.3178,-36.2921,13.3968,-64.1403,-6.9854,-107.3673,-111.0899,-71.6966,-44.3561,-96.7523
CBA,19,-73.5852,-61.3677,-17.5833,28.0909,-67.457,-66.8431,-25.8071,-59.8974,-9.8923,-52.3861,-40.0082,-5.5136,-53.9439,-53.1697,-60.2104,-80.0449,-39.4788,25.7402,-81.7749,-18.2127,-4.7547,-14.4903,-37.2449,13.2205,-64.6604,-7.422,-107.9714,-111.8704,-70.0613,-44.8769,-96.1438
CBA,0,22.5155,-2.9387,34.1373,42.3108,18.1046,72.4638,16.4542,-43.2544,-10.4944,1.8274,-141.9013,-146.2835,-26.5438,-61.4614,-7.1658,-6.2316,-2.6378,28.5907,-89.0208,3.4691,-0.1729,-12.5927,-53.7886,-2.7322,-39.611,-81.9042,16.0533,-32.2603,-3.3567,-50.8663,8.7799
CBA,1,13.5438,-9.5077,28.3906,44.4917,16.0156,79.0357,15.848,-44.8147,-9.1181,0.8702,-153.6484,-196.7677,-33.2226,-75.053,-5.5928,-9.7423,-5.0997,27.6405,-82.9825,-3.4691,-0.6051,-14.5765,-54.2217,-4.5831,-40.8245,-81.8169,17.8658,-26.1898,-3.1846,-46.5262,3.3902
CBA,2,7.3326,-13.3107,22.215,44.4917,13.5784,85.0887,15.6748,-46.0282,-7.7418,0.9572,-157.3939,-216.9268,-40.0726,-81.2077,-4.1946,-14.7451,-7.4737,27.1223,-77.1168,-11.448,-1.2967,-15.784,-54.3083,-5.9933,-41.6045,-81.3803,19.333,-20.5529,-1.5493,-41.0576,0
CBA,3,5.176,-13.8293,16.7256,35.07,10.445,88.2017,16.8006,-45.7682,-4.8171,4.351,-156.117,-193.4939,-50.1764,-75.3094,-1.3982,-19.1335,-10.3753,27.8133,-71.1649,-16.1313,-0.5187,-14.4903,-52.7492,-5.5526,-40.3911,-78.6735,23.1306,-14.4824,5.3364,-35.8495,4.0857
CBA,4,8.1953,-9.2484,14.7528,16.5754,7.7467,84.6564,19.312,-44.2079,-1.6344,10.7905,-151.9459,-134.3947,-62.7633,-57.6147,2.9712,-20.8012,-12.6613,29.8863,-64.6953,-14.7436,1.9019,-10.2639,-49.8042,-2.9085,-37.2707,-74.2202,28.2227,-10.4933,16.9559,-34.4606,15.6473
CBA,5,14.6653,-0.5186,18.6983,-3.5768,9.5745,74.1932,22.6895,-42.7343,-0.3441,17.404,-146.3278,-73.2279,-69.0996,-35.0475,8.0397,-20.3623,-13.1889,32.564,-56.7594,-9.3665,4.4089,-5.1751,-46.4262,0.4407,-33.977,-70.6402,31.1572,-12.6613,29.6082,-38.8875,29.9037
CBA,6,20.0138,7.6061,26.332,-19.018,16.5378,59.7523,26.4999,-42.0408,-0.8602,22.2771,-146.2426,-43.5921,-63.4483,-16.1561,12.4091,-18.6947,-12.3976,34.9826,-49.5135,-2.6018,6.2243,-0.69,-43.3947,3.2611,-31.3768,-68.4573,31.6751,-19.8592,40.5391,-44.9637,41.8999
CBA,7,22.343,12.7057,32.5934,-26.0844,22.0214,47.3868,28.5784,-41.6941,-2.1505,25.4099,-150.8393,-47.2966,-46.5801,-4.9579,13.1082,-15.6228,-10.9028,36.5373,-49.4272,4.5098,6.6565,2.76,-42.3553,5.2882,-29.9033,-67.4968,31.0709,-27.6641,47.8551,-48.783,50.3321
CBA,8,23.9821,14.1751,36.882,-25.8227,21.8474,42.1985,26.6731,-41.3474,-4.387,26.106,-155.5211,-60.6499,-25.0882,-1.6242,7.6028,-12.2876,-8.7926,36.451,-60.8999,10.2338,4.3224,4.4851,-44.7805,6.1696,-30.4233,-68.1953,29.5174,-33.4744,50.179,-50.6059,54.07
CBA,9,26.0525,12.1007,41.1706,-21.6352,18.6268,44.7926,21.4771,-41.8675,-7.8278,23.7565,-164.5443,-63.4929,-13.1007,-5.8982,-2.3595,-10.7955,-6.7703,34.5507,-78.842,12.1418,-0.9509,3.3638,-50.2373,5.2001,-33.197,-71.0768,26.2377,-37.2034,46.6501,-50.6059,52.3314
CBA,10,27.0876,7.5197,46.9174,-15.354,17.7564,51.3645,15.3284,-44.2079,-12.731,17.9261,-180.5475,-49.8811,-21.2351,-14.5319,-13.6326,-13.3408,-4.9239,31.182,-93.5063,8.6727,-8.3855,-1.5525,-57.08,1.4983,-38.1375,-76.4032,20.5413,-40.6723,37.2685,-48.4358,44.5947
CBA,11,25.3623,2.4201,54.4653,-9.858,23.4141,55.3423,11.2581,-48.6287,-17.8922,9.7462,-193.6566,-29.4635,-42.5557,-23.9349,-21.9344,-19.8357,-3.4291,27.3814,-95.7491,0.6071,-15.6472,-9.5739,-62.71,-4.495,-43.7715,-82.952,13.723,-43.8809,24.6161,-44.7901,33.1201
CBA,12,21.7391,-1.2965,60.2978,-5.7578,34.5554,53.8722,11.1715,-54.1763,-21.2469,1.8274,-184.974,-16.7993,-61.0508,-32.9105,-24.6435,-27.8226,-2.4619,24.6174,-82.81,-9.4533,-19.7102,-18.1991,-64.8755,-10.929,-48.2786,-88.2784,8.1993,-44.9216,12.6523,-41.6652,21.9062
CBA,13,16.5631,-4.1488,62.4421,-0.7851,46.393,50.4998,13.7696,-59.1172,-23.4835,-4.7861,-158.3302,-14.3871,-73.8946,-41.4587,-23.9444,-35.1952,-2.1102,22.9762,-65.0404,-18.8198,-20.8341,-25.5304,-64.6156,-16.2172,-51.4856,-92.2951,4.1428,-44.5747,2.496,-41.1444,11.9962
CBA,14,10.2657,-7.0875,59.8689,4.7109,54.749,49.3757,16.6274,-62.2378,-24.9458,-9.4852,-130.0691,-24.036,-82.9709,-49.9214,-22.7209,-40.3735,-2.9016,22.2852,-52.5326,-25.9315,-20.8341,-30.4468,-63.6628,-19.7426,-53.4792,-95.1766,1.2083,-44.2278,-5.7667,-41.8388,4.0857
CBA,15,4.1408,-10.8042,53.2645,7.3281,55.7064,50.3269,18.7058,-62.3245,-24.6017,-10.9645,-117.7262,-48.675,-87.0809,-56.3325,-21.1479,-42.2167,-4.5722,22.7171,-48.4784,-28.7067,-19.7102,-31.8268,-62.4502,-20.4477,-53.5659,-95.6131,1.0357,-43.1005,-9.9842,-40.1028,0.6085
CBA,16,0.2588,-14.5208,45.8023,4.7981,48.7431,50.1539,19.9182,-59.2039,-20.8168,-7.6578,-117.2154,-79.4307,-84.2552,-57.6147,-18.7011,-39.6714,-6.4186,24.9629,-51.67,-26.1049,-16.771,-28.6355,-60.2848,-17.5392,-50.8789,-92.2077,5.61,-39.0246,-7.1438,-33.7662,4.2595
CBA,17,-0.6901,-16.9409,39.3694,-0.7851,37.2537,47.5597,20.6977,-54.003,-14.4514,-0.174,-124.5361,-106.7404,-77.4052,-55.9051,-15.7299,-34.3175,-8.0892,28.5043,-58.7434,-20.3809,-12.1892,-21.9941,-57.2532,-11.8103,-45.8517,-85.3969,14.4135,-31.8267,1.9796,-23.8707,14.0825
CBA,18,-1.1215,-18.151,33.7942,-6.8919,24.8068,44.7062,21.2173,-48.4553,-7.5698,8.702,-140.8798,-118.6292,-67.9008,-54.3664,-13.1082,-28.2615,-9.5839,32.2185,-66.1618,-14.1365,-7.6075,-14.3178,-54.3949,-5.2001,-40.3044,-77.5383,24.4252,-23.7616,13.9434,-13.3676,26.4265
CBA,19,-0.8627,-16.163,29.0767,-8.8111,12.621,44.2738,20.2647,-44.2079,-3.1827,15.6636,-155.9467,-115.3555,-56.5127,-51.9729,-12.5839,-23.6097,-9.8477,34.4643,-72.3725,-9.0196,-5.1869,-8.0214,-53.2689,-0.0881,-36.5773,-71.8627,31.5888,-18.2115,24.1858,-5.8158,37.3796
CBA,1,50.2933,70.8754,13.0374,33.0635,-8.53,-26.2876,31.9558,-33.806,19.8706,26.8022,0.3405,-33.1679,-78.3471,-37.2701,15.9046,10.62,21.1022,60.1182,-68.4045,-60.7091,18.6728,-35.5356,-86.3562,-2.0271,-5.2006,42.1746,-19.9372,-19.0787,-55.6015,-10.3295,-53.7223
CBA,2,51.3285,71.2211,13.1231,34.5465,-9.4875,-26.1146,31.6094,-34.3261,20.3007,25.6709,0.7661,-31.3588,-77.0627,-34.0217,16.2542,8.0747,21.9815,60.0318,-68.577,-60.3622,18.8457,-37.3469,-86.5295,-2.6441,-5.4606,41.738,-20.1961,-18.6451,-58.2696,-9.6351,-57.5472
CBA,3,52.6225,71.3076,13.552,35.9424,-9.7486,-25.9417,31.4362,-34.9329,20.7308,24.5397,1.4471,-29.9804,-75.6927,-33.4234,16.8659,5.6172,22.597,60.2045,-68.6633,-60.7091,19.1051,-39.2444,-86.2696,-3.4373,-5.7206,41.1267,-20.5413,-18.1247,-62.3149,-8.6803,-61.3721
CBA,4,53.4852,70.6161,14.2382,36.8147,-9.5745,-26.2876,31.1764,-36.1465,20.3007,22.6252,2.2132,-29.7219,-74.4083,-35.8169,17.0407,2.9841,23.2125,59.9454,-69.0083,-62.2702,18.8457,-41.6595,-86.2696,-4.8475,-6.5007,39.817,-22.0086,-18.6451,-67.6513,-8.4198,-65.8924
CBA,5,53.6577,69.2332,14.8386,36.9892,-9.4005,-27.0658,30.7434,-37.5334,19.2685,20.2757,3.3198,-30.4973,-73.3808,-39.92,16.8659,0.7021,23.74,59.3408,-69.3534,-64.6985,18.0677,-44.3333,-86.6161,-6.6103,-7.7142,37.896,-24.3389,-20.1193,-73.418,-8.8539,-70.5866
CBA,6,53.5714,67.1588,15.2674,36.7275,-9.2264,-27.6711,30.4836,-38.4869,18.3223,18.5353,4.5967,-31.2726,-73.2952,-43.6812,16.8659,-0.3511,23.74,58.8225,-69.6122,-66.8667,17.549,-46.2308,-86.8759,-7.8442,-8.4943,36.4989,-26.324,-21.5069,-77.2912,-9.6351,-73.8899
CBA,7,53.3989,64.9979,15.439,36.9892,-9.3134,-27.5847,30.5702,-38.4869,17.8061,18.1002,5.533,-31.0142,-74.0658,-45.9037,17.1281,0.2633,23.3004,58.6498,-69.6984,-68.2544,17.6355,-46.6621,-86.7893,-8.1086,-8.7543,36.0623,-27.187,-22.3741,-78.4962,-10.2427,-74.8461
CBA,8,53.1401,63.0964,15.3532,37.6871,-9.5745,-27.2388,30.7434,-37.8801,17.7201,18.5353,5.6182,-30.5834,-74.9221,-46.5876,17.565,1.9309,23.2125,58.6498,-69.4397,-68.9482,18.0677,-46.1446,-86.4429,-7.756,-8.4076,36.1496,-27.446,-22.8944,-77.9798,-10.7635,-74.4115
